Study Name	CF3-Moar-Data
Sample Name	30kh-290C
Run Name	spot3
Operator	Mike Short
Date	6/2/2020
Time	15:35
Sign	FIX
Grating Spacing	06.40um
Channel	2
Number Traces	5000
Files in Batch	1
Batch Number	1
dt	50.000001E-12
time stamp (ms)	15:36:09
	
Time	Amplitude
0.000000E+0	4.796414E-5
5.000000E-11	-1.027803E-5
1.000000E-10	-5.481616E-5
1.500000E-10	-1.130583E-4
2.000000E-10	-1.884305E-4
2.500000E-10	-2.638028E-4
3.000000E-10	-3.426010E-4
3.500000E-10	-4.213992E-4
4.000000E-10	-4.762154E-4
4.500000E-10	-5.241795E-4
5.000000E-10	-6.029777E-4
5.500000E-10	-6.577939E-4
6.000000E-10	-6.852020E-4
6.500000E-10	-7.160361E-4
7.000000E-10	-7.434442E-4
7.500000E-10	-7.468702E-4
8.000000E-10	-7.365921E-4
8.500000E-10	-7.126101E-4
9.000000E-10	-6.680719E-4
9.500000E-10	-5.892737E-4
1.000000E-9	-4.762154E-4
1.050000E-9	-3.494530E-4
1.100000E-9	-2.398207E-4
1.150000E-9	-1.404664E-4
1.200000E-9	-3.083409E-5
1.250000E-9	9.250227E-5
1.300000E-9	2.055606E-4
1.350000E-9	2.740808E-4
1.400000E-9	3.014889E-4
1.450000E-9	3.220449E-4
1.500000E-9	3.288970E-4
1.550000E-9	2.946369E-4
1.600000E-9	2.535247E-4
1.650000E-9	2.295427E-4
1.700000E-9	2.226906E-4
1.750000E-9	2.158386E-4
1.800000E-9	2.158386E-4
1.850000E-9	2.329687E-4
1.900000E-9	2.466727E-4
1.950000E-9	2.535247E-4
2.000000E-9	2.809328E-4
2.050000E-9	3.186189E-4
2.100000E-9	3.186189E-4
2.150000E-9	2.809328E-4
2.200000E-9	2.295427E-4
2.250000E-9	1.747265E-4
2.300000E-9	1.096323E-4
2.350000E-9	3.768611E-5
2.400000E-9	-5.139015E-5
2.450000E-9	-1.164843E-4
2.500000E-9	-1.199103E-4
2.550000E-9	-1.301884E-4
2.600000E-9	-1.644485E-4
2.650000E-9	-1.541704E-4
2.700000E-9	-7.537222E-5
2.750000E-9	3.083409E-5
2.800000E-9	1.301884E-4
2.850000E-9	2.192646E-4
2.900000E-9	3.083409E-4
2.950000E-9	4.111212E-4
3.000000E-9	5.241795E-4
3.050000E-9	6.029777E-4
3.100000E-9	6.303858E-4
3.150000E-9	6.612199E-4
3.200000E-9	7.228881E-4
3.250000E-9	7.537222E-4
3.300000E-9	7.126101E-4
3.350000E-9	6.440899E-4
3.400000E-9	5.755697E-4
3.450000E-9	5.241795E-4
3.500000E-9	4.727894E-4
3.550000E-9	4.042692E-4
3.600000E-9	3.014889E-4
3.650000E-9	2.055606E-4
3.700000E-9	1.336144E-4
3.750000E-9	6.852020E-5
3.800000E-9	2.398207E-5
3.850000E-9	3.083409E-5
3.900000E-9	5.824217E-5
3.950000E-9	7.194621E-5
4.000000E-9	9.592828E-5
4.050000E-9	1.438924E-4
4.100000E-9	1.541704E-4
4.150000E-9	1.541704E-4
4.200000E-9	1.918566E-4
4.250000E-9	2.261167E-4
4.300000E-9	2.329687E-4
4.350000E-9	2.432467E-4
4.400000E-9	2.432467E-4
4.450000E-9	2.226906E-4
4.500000E-9	2.158386E-4
4.550000E-9	2.089866E-4
4.600000E-9	1.575965E-4
4.650000E-9	1.062063E-4
4.700000E-9	5.824217E-5
4.750000E-9	-1.370404E-5
4.800000E-9	-6.166818E-5
4.850000E-9	-1.062063E-4
4.900000E-9	-1.713005E-4
4.950000E-9	-2.055606E-4
5.000000E-9	-2.055606E-4
5.050000E-9	-2.158386E-4
5.100000E-9	-2.261167E-4
5.150000E-9	-2.192646E-4
5.200000E-9	-1.644485E-4
5.250000E-9	-7.537222E-5
5.300000E-9	-6.852020E-6
5.350000E-9	2.398207E-5
5.400000E-9	5.824217E-5
5.450000E-9	7.879823E-5
5.500000E-9	4.796414E-5
5.550000E-9	-1.713005E-5
5.600000E-9	-8.222424E-5
5.650000E-9	-1.507444E-4
5.700000E-9	-2.398207E-4
5.750000E-9	-3.460270E-4
5.800000E-9	-4.590853E-4
5.850000E-9	-5.755697E-4
5.900000E-9	-6.543679E-4
5.950000E-9	-6.852020E-4
6.000000E-9	-6.852020E-4
6.050000E-9	-6.612199E-4
6.100000E-9	-6.064038E-4
6.150000E-9	-5.344575E-4
6.200000E-9	-4.522333E-4
6.250000E-9	-3.700091E-4
6.300000E-9	-2.706548E-4
6.350000E-9	-1.678745E-4
6.400000E-9	-7.879823E-5
6.450000E-9	-1.370404E-5
6.500000E-9	2.055606E-5
6.550000E-9	4.453813E-5
6.600000E-9	4.453813E-5
6.650000E-9	-3.083409E-5
6.700000E-9	-9.592828E-5
6.750000E-9	-1.130583E-4
6.800000E-9	-1.610225E-4
6.850000E-9	-2.398207E-4
6.900000E-9	-2.638028E-4
6.950000E-9	-2.638028E-4
7.000000E-9	-2.843588E-4
7.050000E-9	-2.535247E-4
7.100000E-9	-1.301884E-4
7.150000E-9	3.426010E-6
7.200000E-9	1.267624E-4
7.250000E-9	2.912108E-4
7.300000E-9	4.522333E-4
7.350000E-9	5.858477E-4
7.400000E-9	7.228881E-4
7.450000E-9	8.359464E-4
7.500000E-9	8.702065E-4
7.550000E-9	8.804846E-4
7.600000E-9	8.907626E-4
7.650000E-9	8.530765E-4
7.700000E-9	7.605742E-4
7.750000E-9	6.817760E-4
7.800000E-9	6.166818E-4
7.850000E-9	5.310315E-4
7.900000E-9	4.453813E-4
7.950000E-9	3.802871E-4
8.000000E-9	3.186189E-4
8.050000E-9	2.706548E-4
8.100000E-9	2.569507E-4
8.150000E-9	2.912108E-4
8.200000E-9	3.357490E-4
8.250000E-9	3.802871E-4
8.300000E-9	4.522333E-4
8.350000E-9	5.652916E-4
8.400000E-9	6.852020E-4
8.450000E-9	8.188164E-4
8.500000E-9	9.935429E-4
8.550000E-9	1.188825E-3
8.600000E-9	1.404664E-3
8.650000E-9	1.627355E-3
8.700000E-9	1.805507E-3
8.750000E-9	1.945974E-3
8.800000E-9	2.083014E-3
8.850000E-9	2.154960E-3
8.900000E-9	2.144682E-3
8.950000E-9	2.083014E-3
9.000000E-9	1.956252E-3
9.050000E-9	1.740413E-3
9.100000E-9	1.483462E-3
9.150000E-9	1.192251E-3
9.200000E-9	8.359464E-4
9.250000E-9	4.556593E-4
9.300000E-9	9.250227E-5
9.350000E-9	-2.843588E-4
9.400000E-9	-6.612199E-4
9.450000E-9	-9.729868E-4
9.500000E-9	-1.250494E-3
9.550000E-9	-1.504018E-3
9.600000E-9	-1.647911E-3
9.650000E-9	-1.685597E-3
9.700000E-9	-1.651337E-3
9.750000E-9	-1.555409E-3
9.800000E-9	-1.404664E-3
9.850000E-9	-1.216234E-3
9.900000E-9	-9.627088E-4
9.950000E-9	-6.406639E-4
1.000000E-8	-2.432467E-4
1.005000E-8	2.912108E-4
1.010000E-8	1.024377E-3
1.015000E-8	1.980234E-3
1.020000E-8	3.237579E-3
1.025000E-8	4.864934E-3
1.030000E-8	6.899984E-3
1.035000E-8	9.394119E-3
1.040000E-8	1.237475E-2
1.045000E-8	1.581446E-2
1.050000E-8	1.970641E-2
1.055000E-8	2.403003E-2
1.060000E-8	2.863116E-2
1.065000E-8	3.339674E-2
1.070000E-8	3.828223E-2
1.075000E-8	4.318143E-2
1.080000E-8	4.791617E-2
1.085000E-8	5.240082E-2
1.090000E-8	5.664565E-2
1.095000E-8	6.054787E-2
1.100000E-8	6.406296E-2
1.105000E-8	6.723887E-2
1.110000E-8	7.010644E-2
1.115000E-8	7.262798E-2
1.120000E-8	7.482406E-2
1.125000E-8	7.677346E-2
1.130000E-8	7.851044E-2
1.135000E-8	7.999733E-2
1.140000E-8	8.123755E-2
1.145000E-8	8.226878E-2
1.150000E-8	8.311157E-2
1.155000E-8	8.375566E-2
1.160000E-8	8.415651E-2
1.165000E-8	8.429355E-2
1.170000E-8	8.420447E-2
1.175000E-8	8.393724E-2
1.180000E-8	8.345418E-2
1.185000E-8	8.279638E-2
1.190000E-8	8.207349E-2
1.195000E-8	8.127866E-2
1.200000E-8	8.039132E-2
1.205000E-8	7.951084E-2
1.210000E-8	7.866461E-2
1.215000E-8	7.776357E-2
1.220000E-8	7.686596E-2
1.225000E-8	7.609511E-2
1.230000E-8	7.534481E-2
1.235000E-8	7.453970E-2
1.240000E-8	7.379968E-2
1.245000E-8	7.313161E-2
1.250000E-8	7.239159E-2
1.255000E-8	7.166528E-2
1.260000E-8	7.103489E-2
1.265000E-8	7.038052E-2
1.270000E-8	6.967819E-2
1.275000E-8	6.903753E-2
1.280000E-8	6.843112E-2
1.285000E-8	6.779731E-2
1.290000E-8	6.719776E-2
1.295000E-8	6.660506E-2
1.300000E-8	6.601921E-2
1.305000E-8	6.552244E-2
1.310000E-8	6.509761E-2
1.315000E-8	6.473103E-2
1.320000E-8	6.449464E-2
1.325000E-8	6.440213E-2
1.330000E-8	6.442269E-2
1.335000E-8	6.458029E-2
1.340000E-8	6.485437E-2
1.345000E-8	6.523123E-2
1.350000E-8	6.577596E-2
1.355000E-8	6.646459E-2
1.360000E-8	6.716007E-2
1.365000E-8	6.787268E-2
1.370000E-8	6.865039E-2
1.375000E-8	6.945550E-2
1.380000E-8	7.021265E-2
1.385000E-8	7.093211E-2
1.390000E-8	7.164129E-2
1.395000E-8	7.231622E-2
1.400000E-8	7.291920E-2
1.405000E-8	7.345365E-2
1.410000E-8	7.394015E-2
1.415000E-8	7.439923E-2
1.420000E-8	7.482406E-2
1.425000E-8	7.520434E-2
1.430000E-8	7.557778E-2
1.435000E-8	7.599233E-2
1.440000E-8	7.640345E-2
1.445000E-8	7.674262E-2
1.450000E-8	7.703726E-2
1.455000E-8	7.732504E-2
1.460000E-8	7.755801E-2
1.465000E-8	7.772931E-2
1.470000E-8	7.782867E-2
1.475000E-8	7.781154E-2
1.480000E-8	7.767107E-2
1.485000E-8	7.741069E-2
1.490000E-8	7.700300E-2
1.495000E-8	7.647539E-2
1.500000E-8	7.585186E-2
1.505000E-8	7.509129E-2
1.510000E-8	7.422793E-2
1.515000E-8	7.330976E-2
1.520000E-8	7.234020E-2
1.525000E-8	7.134323E-2
1.530000E-8	7.038737E-2
1.535000E-8	6.946920E-2
1.540000E-8	6.854418E-2
1.545000E-8	6.769110E-2
1.550000E-8	6.699220E-2
1.555000E-8	6.635839E-2
1.560000E-8	6.573143E-2
1.565000E-8	6.523123E-2
1.570000E-8	6.487150E-2
1.575000E-8	6.454260E-2
1.580000E-8	6.426167E-2
1.585000E-8	6.411778E-2
1.590000E-8	6.403898E-2
1.595000E-8	6.395675E-2
1.600000E-8	6.390194E-2
1.605000E-8	6.390194E-2
1.610000E-8	6.394990E-2
1.615000E-8	6.403213E-2
1.620000E-8	6.413833E-2
1.625000E-8	6.427195E-2
1.630000E-8	6.444667E-2
1.635000E-8	6.468992E-2
1.640000E-8	6.499483E-2
1.645000E-8	6.535114E-2
1.650000E-8	6.577254E-2
1.655000E-8	6.625561E-2
1.660000E-8	6.677979E-2
1.665000E-8	6.736563E-2
1.670000E-8	6.802685E-2
1.675000E-8	6.872576E-2
1.680000E-8	6.939383E-2
1.685000E-8	7.002764E-2
1.690000E-8	7.067516E-2
1.695000E-8	7.129527E-2
1.700000E-8	7.184685E-2
1.705000E-8	7.235048E-2
1.710000E-8	7.280614E-2
1.715000E-8	7.321041E-2
1.720000E-8	7.353588E-2
1.725000E-8	7.374829E-2
1.730000E-8	7.386477E-2
1.735000E-8	7.393672E-2
1.740000E-8	7.397441E-2
1.745000E-8	7.394015E-2
1.750000E-8	7.381681E-2
1.755000E-8	7.365579E-2
1.760000E-8	7.349134E-2
1.765000E-8	7.328920E-2
1.770000E-8	7.303568E-2
1.775000E-8	7.275817E-2
1.780000E-8	7.245668E-2
1.785000E-8	7.213806E-2
1.790000E-8	7.179889E-2
1.795000E-8	7.139462E-2
1.800000E-8	7.092868E-2
1.805000E-8	7.043191E-2
1.810000E-8	6.991458E-2
1.815000E-8	6.934244E-2
1.820000E-8	6.872919E-2
1.825000E-8	6.809537E-2
1.830000E-8	6.744101E-2
1.835000E-8	6.678321E-2
1.840000E-8	6.613227E-2
1.845000E-8	6.548818E-2
1.850000E-8	6.486807E-2
1.855000E-8	6.429935E-2
1.860000E-8	6.376832E-2
1.865000E-8	6.325785E-2
1.870000E-8	6.280904E-2
1.875000E-8	6.244588E-2
1.880000E-8	6.216152E-2
1.885000E-8	6.193883E-2
1.890000E-8	6.180865E-2
1.895000E-8	6.177096E-2
1.900000E-8	6.182920E-2
1.905000E-8	6.197309E-2
1.910000E-8	6.221977E-2
1.915000E-8	6.254524E-2
1.920000E-8	6.293923E-2
1.925000E-8	6.337776E-2
1.930000E-8	6.386425E-2
1.935000E-8	6.437130E-2
1.940000E-8	6.488178E-2
1.945000E-8	6.539568E-2
1.950000E-8	6.592671E-2
1.955000E-8	6.644404E-2
1.960000E-8	6.694766E-2
1.965000E-8	6.748212E-2
1.970000E-8	6.802000E-2
1.975000E-8	6.852362E-2
1.980000E-8	6.901697E-2
1.985000E-8	6.952059E-2
1.990000E-8	7.002764E-2
1.995000E-8	7.050728E-2
2.000000E-8	7.093896E-2
2.005000E-8	7.128841E-2
2.010000E-8	7.153851E-2
2.015000E-8	7.169954E-2
2.020000E-8	7.182287E-2
2.025000E-8	7.189824E-2
2.030000E-8	7.188454E-2
2.035000E-8	7.179889E-2
2.040000E-8	7.164129E-2
2.045000E-8	7.142888E-2
2.050000E-8	7.119934E-2
2.055000E-8	7.095609E-2
2.060000E-8	7.067516E-2
2.065000E-8	7.037367E-2
2.070000E-8	7.008589E-2
2.075000E-8	6.977754E-2
2.080000E-8	6.940754E-2
2.085000E-8	6.902725E-2
2.090000E-8	6.866066E-2
2.095000E-8	6.827353E-2
2.100000E-8	6.783842E-2
2.105000E-8	6.735878E-2
2.110000E-8	6.685173E-2
2.115000E-8	6.634126E-2
2.120000E-8	6.581365E-2
2.125000E-8	6.527577E-2
2.130000E-8	6.473446E-2
2.135000E-8	6.418972E-2
2.140000E-8	6.367925E-2
2.145000E-8	6.317562E-2
2.150000E-8	6.267543E-2
2.155000E-8	6.223690E-2
2.160000E-8	6.185661E-2
2.165000E-8	6.147975E-2
2.170000E-8	6.115428E-2
2.175000E-8	6.090760E-2
2.180000E-8	6.070547E-2
2.185000E-8	6.060269E-2
2.190000E-8	6.061982E-2
2.195000E-8	6.068149E-2
2.200000E-8	6.077056E-2
2.205000E-8	6.097955E-2
2.210000E-8	6.132558E-2
2.215000E-8	6.171614E-2
2.220000E-8	6.214782E-2
2.225000E-8	6.265144E-2
2.230000E-8	6.319961E-2
2.235000E-8	6.376490E-2
2.240000E-8	6.432676E-2
2.245000E-8	6.484752E-2
2.250000E-8	6.536142E-2
2.255000E-8	6.586504E-2
2.260000E-8	6.632413E-2
2.265000E-8	6.675238E-2
2.270000E-8	6.715322E-2
2.275000E-8	6.747184E-2
2.280000E-8	6.775620E-2
2.285000E-8	6.807139E-2
2.290000E-8	6.834547E-2
2.295000E-8	6.855446E-2
2.300000E-8	6.879085E-2
2.305000E-8	6.904438E-2
2.310000E-8	6.920197E-2
2.315000E-8	6.928762E-2
2.320000E-8	6.936985E-2
2.325000E-8	6.940754E-2
2.330000E-8	6.938355E-2
2.335000E-8	6.934244E-2
2.340000E-8	6.927392E-2
2.345000E-8	6.915401E-2
2.350000E-8	6.898956E-2
2.355000E-8	6.877715E-2
2.360000E-8	6.850649E-2
2.365000E-8	6.821186E-2
2.370000E-8	6.786926E-2
2.375000E-8	6.742045E-2
2.380000E-8	6.690655E-2
2.385000E-8	6.639265E-2
2.390000E-8	6.584791E-2
2.395000E-8	6.525521E-2
2.400000E-8	6.462825E-2
2.405000E-8	6.399444E-2
2.410000E-8	6.336748E-2
2.415000E-8	6.275080E-2
2.420000E-8	6.213412E-2
2.425000E-8	6.154827E-2
2.430000E-8	6.104122E-2
2.435000E-8	6.057871E-2
2.440000E-8	6.015388E-2
2.445000E-8	5.979415E-2
2.450000E-8	5.951664E-2
2.455000E-8	5.930081E-2
2.460000E-8	5.913978E-2
2.465000E-8	5.903358E-2
2.470000E-8	5.898561E-2
2.475000E-8	5.901645E-2
2.480000E-8	5.912608E-2
2.485000E-8	5.928368E-2
2.490000E-8	5.949951E-2
2.495000E-8	5.977360E-2
2.500000E-8	6.007851E-2
2.505000E-8	6.041083E-2
2.510000E-8	6.078427E-2
2.515000E-8	6.121252E-2
2.520000E-8	6.165447E-2
2.525000E-8	6.208615E-2
2.530000E-8	6.252811E-2
2.535000E-8	6.300775E-2
2.540000E-8	6.350452E-2
2.545000E-8	6.399101E-2
2.550000E-8	6.447065E-2
2.555000E-8	6.492631E-2
2.560000E-8	6.533058E-2
2.565000E-8	6.567661E-2
2.570000E-8	6.596097E-2
2.575000E-8	6.620422E-2
2.580000E-8	6.640292E-2
2.585000E-8	6.650913E-2
2.590000E-8	6.655024E-2
2.595000E-8	6.656052E-2
2.600000E-8	6.653311E-2
2.605000E-8	6.647830E-2
2.610000E-8	6.643376E-2
2.615000E-8	6.635839E-2
2.620000E-8	6.624533E-2
2.625000E-8	6.613227E-2
2.630000E-8	6.601236E-2
2.635000E-8	6.583421E-2
2.640000E-8	6.561494E-2
2.645000E-8	6.533744E-2
2.650000E-8	6.495715E-2
2.655000E-8	6.450491E-2
2.660000E-8	6.402527E-2
2.665000E-8	6.346341E-2
2.670000E-8	6.283987E-2
2.675000E-8	6.221634E-2
2.680000E-8	6.160994E-2
2.685000E-8	6.103779E-2
2.690000E-8	6.052389E-2
2.695000E-8	6.004425E-2
2.700000E-8	5.961600E-2
2.705000E-8	5.926655E-2
2.710000E-8	5.898904E-2
2.715000E-8	5.876292E-2
2.720000E-8	5.854023E-2
2.725000E-8	5.832097E-2
2.730000E-8	5.814281E-2
2.735000E-8	5.796124E-2
2.740000E-8	5.773512E-2
2.745000E-8	5.753298E-2
2.750000E-8	5.739594E-2
2.755000E-8	5.727603E-2
2.760000E-8	5.717325E-2
2.765000E-8	5.711844E-2
2.770000E-8	5.716298E-2
2.775000E-8	5.728974E-2
2.780000E-8	5.748159E-2
2.785000E-8	5.776253E-2
2.790000E-8	5.810855E-2
2.795000E-8	5.848199E-2
2.800000E-8	5.888283E-2
2.805000E-8	5.931451E-2
2.810000E-8	5.972906E-2
2.815000E-8	6.012305E-2
2.820000E-8	6.052732E-2
2.825000E-8	6.094529E-2
2.830000E-8	6.135299E-2
2.835000E-8	6.174698E-2
2.840000E-8	6.213069E-2
2.845000E-8	6.249727E-2
2.850000E-8	6.288441E-2
2.855000E-8	6.328868E-2
2.860000E-8	6.366212E-2
2.865000E-8	6.399787E-2
2.870000E-8	6.432334E-2
2.875000E-8	6.461797E-2
2.880000E-8	6.484409E-2
2.885000E-8	6.500169E-2
2.890000E-8	6.509761E-2
2.895000E-8	6.513187E-2
2.900000E-8	6.507706E-2
2.905000E-8	6.495030E-2
2.910000E-8	6.479270E-2
2.915000E-8	6.459742E-2
2.920000E-8	6.436787E-2
2.925000E-8	6.414518E-2
2.930000E-8	6.391907E-2
2.935000E-8	6.363813E-2
2.940000E-8	6.331609E-2
2.945000E-8	6.299062E-2
2.950000E-8	6.266172E-2
2.955000E-8	6.227116E-2
2.960000E-8	6.181207E-2
2.965000E-8	6.133928E-2
2.970000E-8	6.085621E-2
2.975000E-8	6.034574E-2
2.980000E-8	5.980786E-2
2.985000E-8	5.925627E-2
2.990000E-8	5.871496E-2
2.995000E-8	5.822504E-2
3.000000E-8	5.781049E-2
3.005000E-8	5.747132E-2
3.010000E-8	5.720066E-2
3.015000E-8	5.698482E-2
3.020000E-8	5.683750E-2
3.025000E-8	5.679297E-2
3.030000E-8	5.684436E-2
3.035000E-8	5.693343E-2
3.040000E-8	5.702594E-2
3.045000E-8	5.714242E-2
3.050000E-8	5.725548E-2
3.055000E-8	5.734455E-2
3.060000E-8	5.747817E-2
3.065000E-8	5.763576E-2
3.070000E-8	5.773855E-2
3.075000E-8	5.783447E-2
3.080000E-8	5.798179E-2
3.085000E-8	5.816337E-2
3.090000E-8	5.835180E-2
3.095000E-8	5.858820E-2
3.100000E-8	5.888626E-2
3.105000E-8	5.919460E-2
3.110000E-8	5.952692E-2
3.115000E-8	5.991406E-2
3.120000E-8	6.031833E-2
3.125000E-8	6.072945E-2
3.130000E-8	6.116456E-2
3.135000E-8	6.158938E-2
3.140000E-8	6.198337E-2
3.145000E-8	6.238764E-2
3.150000E-8	6.277821E-2
3.155000E-8	6.313108E-2
3.160000E-8	6.346341E-2
3.165000E-8	6.375804E-2
3.170000E-8	6.401157E-2
3.175000E-8	6.423083E-2
3.180000E-8	6.435074E-2
3.185000E-8	6.435417E-2
3.190000E-8	6.430278E-2
3.195000E-8	6.418630E-2
3.200000E-8	6.394648E-2
3.205000E-8	6.364156E-2
3.210000E-8	6.332637E-2
3.215000E-8	6.291867E-2
3.220000E-8	6.245273E-2
3.225000E-8	6.203134E-2
3.230000E-8	6.161679E-2
3.235000E-8	6.119539E-2
3.240000E-8	6.079797E-2
3.245000E-8	6.039713E-2
3.250000E-8	5.997230E-2
3.255000E-8	5.959202E-2
3.260000E-8	5.926312E-2
3.265000E-8	5.893765E-2
3.270000E-8	5.860875E-2
3.275000E-8	5.826615E-2
3.280000E-8	5.792698E-2
3.285000E-8	5.763576E-2
3.290000E-8	5.735826E-2
3.295000E-8	5.707733E-2
3.300000E-8	5.684778E-2
3.305000E-8	5.664907E-2
3.310000E-8	5.647092E-2
3.315000E-8	5.635444E-2
3.320000E-8	5.627221E-2
3.325000E-8	5.618314E-2
3.330000E-8	5.614888E-2
3.335000E-8	5.619341E-2
3.340000E-8	5.627221E-2
3.345000E-8	5.636814E-2
3.350000E-8	5.650861E-2
3.355000E-8	5.667991E-2
3.360000E-8	5.690945E-2
3.365000E-8	5.721437E-2
3.370000E-8	5.750558E-2
3.375000E-8	5.777281E-2
3.380000E-8	5.810513E-2
3.385000E-8	5.851282E-2
3.390000E-8	5.887598E-2
3.395000E-8	5.918775E-2
3.400000E-8	5.953377E-2
3.405000E-8	5.988323E-2
3.410000E-8	6.016416E-2
3.415000E-8	6.039713E-2
3.420000E-8	6.063010E-2
3.425000E-8	6.082538E-2
3.430000E-8	6.099325E-2
3.435000E-8	6.111659E-2
3.440000E-8	6.116113E-2
3.445000E-8	6.116456E-2
3.450000E-8	6.116113E-2
3.455000E-8	6.113715E-2
3.460000E-8	6.104807E-2
3.465000E-8	6.089047E-2
3.470000E-8	6.069519E-2
3.475000E-8	6.048963E-2
3.480000E-8	6.025324E-2
3.485000E-8	5.996203E-2
3.490000E-8	5.963655E-2
3.495000E-8	5.930081E-2
3.500000E-8	5.898561E-2
3.505000E-8	5.869440E-2
3.510000E-8	5.839291E-2
3.515000E-8	5.808115E-2
3.520000E-8	5.777966E-2
3.525000E-8	5.750558E-2
3.530000E-8	5.727603E-2
3.535000E-8	5.709103E-2
3.540000E-8	5.686149E-2
3.545000E-8	5.658055E-2
3.550000E-8	5.634759E-2
3.555000E-8	5.615230E-2
3.560000E-8	5.591248E-2
3.565000E-8	5.566581E-2
3.570000E-8	5.544654E-2
3.575000E-8	5.522728E-2
3.580000E-8	5.503542E-2
3.585000E-8	5.493607E-2
3.590000E-8	5.488468E-2
3.595000E-8	5.484699E-2
3.600000E-8	5.489496E-2
3.605000E-8	5.503885E-2
3.610000E-8	5.521700E-2
3.615000E-8	5.542256E-2
3.620000E-8	5.568979E-2
3.625000E-8	5.597072E-2
3.630000E-8	5.622082E-2
3.635000E-8	5.645037E-2
3.640000E-8	5.667306E-2
3.645000E-8	5.690602E-2
3.650000E-8	5.713899E-2
3.655000E-8	5.738567E-2
3.660000E-8	5.763919E-2
3.665000E-8	5.792698E-2
3.670000E-8	5.826958E-2
3.675000E-8	5.864644E-2
3.680000E-8	5.905071E-2
3.685000E-8	5.949266E-2
3.690000E-8	5.996203E-2
3.695000E-8	6.040055E-2
3.700000E-8	6.082195E-2
3.705000E-8	6.125021E-2
3.710000E-8	6.163734E-2
3.715000E-8	6.194911E-2
3.720000E-8	6.217523E-2
3.725000E-8	6.230542E-2
3.730000E-8	6.232940E-2
3.735000E-8	6.230884E-2
3.740000E-8	6.227458E-2
3.745000E-8	6.219236E-2
3.750000E-8	6.204161E-2
3.755000E-8	6.187031E-2
3.760000E-8	6.172299E-2
3.765000E-8	6.154484E-2
3.770000E-8	6.133928E-2
3.775000E-8	6.115085E-2
3.780000E-8	6.095214E-2
3.785000E-8	6.069519E-2
3.790000E-8	6.038000E-2
3.795000E-8	6.003740E-2
3.800000E-8	5.965711E-2
3.805000E-8	5.919803E-2
3.810000E-8	5.869440E-2
3.815000E-8	5.817365E-2
3.820000E-8	5.760493E-2
3.825000E-8	5.701908E-2
3.830000E-8	5.649148E-2
3.835000E-8	5.598785E-2
3.840000E-8	5.550479E-2
3.845000E-8	5.507311E-2
3.850000E-8	5.469967E-2
3.855000E-8	5.432967E-2
3.860000E-8	5.401790E-2
3.865000E-8	5.382262E-2
3.870000E-8	5.363419E-2
3.875000E-8	5.340807E-2
3.880000E-8	5.322992E-2
3.885000E-8	5.309630E-2
3.890000E-8	5.295926E-2
3.895000E-8	5.284620E-2
3.900000E-8	5.276398E-2
3.905000E-8	5.268518E-2
3.910000E-8	5.265777E-2
3.915000E-8	5.269888E-2
3.920000E-8	5.272629E-2
3.925000E-8	5.275027E-2
3.930000E-8	5.288389E-2
3.935000E-8	5.307575E-2
3.940000E-8	5.326760E-2
3.945000E-8	5.350742E-2
3.950000E-8	5.377465E-2
3.955000E-8	5.405216E-2
3.960000E-8	5.433652E-2
3.965000E-8	5.462430E-2
3.970000E-8	5.490866E-2
3.975000E-8	5.519645E-2
3.980000E-8	5.547738E-2
3.985000E-8	5.575831E-2
3.990000E-8	5.606323E-2
3.995000E-8	5.636814E-2
4.000000E-8	5.666620E-2
4.005000E-8	5.699853E-2
4.010000E-8	5.732057E-2
4.015000E-8	5.762206E-2
4.020000E-8	5.797151E-2
4.025000E-8	5.833467E-2
4.030000E-8	5.859847E-2
4.035000E-8	5.878005E-2
4.040000E-8	5.895135E-2
4.045000E-8	5.907126E-2
4.050000E-8	5.908497E-2
4.055000E-8	5.899246E-2
4.060000E-8	5.882459E-2
4.065000E-8	5.862931E-2
4.070000E-8	5.842032E-2
4.075000E-8	5.817707E-2
4.080000E-8	5.792012E-2
4.085000E-8	5.769401E-2
4.090000E-8	5.750900E-2
4.095000E-8	5.735141E-2
4.100000E-8	5.719381E-2
4.105000E-8	5.707733E-2
4.110000E-8	5.699510E-2
4.115000E-8	5.689575E-2
4.120000E-8	5.677926E-2
4.125000E-8	5.667306E-2
4.130000E-8	5.652916E-2
4.135000E-8	5.631675E-2
4.140000E-8	5.608721E-2
4.145000E-8	5.586109E-2
4.150000E-8	5.561785E-2
4.155000E-8	5.534719E-2
4.160000E-8	5.507311E-2
4.165000E-8	5.484014E-2
4.170000E-8	5.463458E-2
4.175000E-8	5.445643E-2
4.180000E-8	5.431596E-2
4.185000E-8	5.424402E-2
4.190000E-8	5.426115E-2
4.195000E-8	5.432967E-2
4.200000E-8	5.439476E-2
4.205000E-8	5.449411E-2
4.210000E-8	5.467227E-2
4.215000E-8	5.486412E-2
4.220000E-8	5.503542E-2
4.225000E-8	5.523413E-2
4.230000E-8	5.544312E-2
4.235000E-8	5.565211E-2
4.240000E-8	5.588850E-2
4.245000E-8	5.615573E-2
4.250000E-8	5.642638E-2
4.255000E-8	5.667648E-2
4.260000E-8	5.692315E-2
4.265000E-8	5.716983E-2
4.270000E-8	5.739594E-2
4.275000E-8	5.757752E-2
4.280000E-8	5.772484E-2
4.285000E-8	5.784133E-2
4.290000E-8	5.787901E-2
4.295000E-8	5.784475E-2
4.300000E-8	5.776938E-2
4.305000E-8	5.767003E-2
4.310000E-8	5.751243E-2
4.315000E-8	5.730344E-2
4.320000E-8	5.708418E-2
4.325000E-8	5.686149E-2
4.330000E-8	5.661824E-2
4.335000E-8	5.638527E-2
4.340000E-8	5.617286E-2
4.345000E-8	5.597415E-2
4.350000E-8	5.578229E-2
4.355000E-8	5.559386E-2
4.360000E-8	5.536089E-2
4.365000E-8	5.509709E-2
4.370000E-8	5.483671E-2
4.375000E-8	5.456263E-2
4.380000E-8	5.424744E-2
4.385000E-8	5.392882E-2
4.390000E-8	5.363761E-2
4.395000E-8	5.334640E-2
4.400000E-8	5.304491E-2
4.405000E-8	5.277768E-2
4.410000E-8	5.253444E-2
4.415000E-8	5.230832E-2
4.420000E-8	5.211989E-2
4.425000E-8	5.197257E-2
4.430000E-8	5.181840E-2
4.435000E-8	5.167451E-2
4.440000E-8	5.154775E-2
4.445000E-8	5.141413E-2
4.450000E-8	5.128394E-2
4.455000E-8	5.118459E-2
4.460000E-8	5.110922E-2
4.465000E-8	5.106810E-2
4.470000E-8	5.110236E-2
4.475000E-8	5.118459E-2
4.480000E-8	5.131135E-2
4.485000E-8	5.151691E-2
4.490000E-8	5.178757E-2
4.495000E-8	5.210618E-2
4.500000E-8	5.246934E-2
4.505000E-8	5.286333E-2
4.510000E-8	5.327445E-2
4.515000E-8	5.367872E-2
4.520000E-8	5.407271E-2
4.525000E-8	5.441532E-2
4.530000E-8	5.471680E-2
4.535000E-8	5.502857E-2
4.540000E-8	5.534034E-2
4.545000E-8	5.559729E-2
4.550000E-8	5.583711E-2
4.555000E-8	5.608721E-2
4.560000E-8	5.632018E-2
4.565000E-8	5.653944E-2
4.570000E-8	5.675528E-2
4.575000E-8	5.697797E-2
4.580000E-8	5.716298E-2
4.585000E-8	5.730344E-2
4.590000E-8	5.742678E-2
4.595000E-8	5.749530E-2
4.600000E-8	5.746104E-2
4.605000E-8	5.738567E-2
4.610000E-8	5.731029E-2
4.615000E-8	5.718696E-2
4.620000E-8	5.700538E-2
4.625000E-8	5.681010E-2
4.630000E-8	5.660454E-2
4.635000E-8	5.638185E-2
4.640000E-8	5.616601E-2
4.645000E-8	5.593989E-2
4.650000E-8	5.571035E-2
4.655000E-8	5.550821E-2
4.660000E-8	5.530265E-2
4.665000E-8	5.506283E-2
4.670000E-8	5.481958E-2
4.675000E-8	5.457976E-2
4.680000E-8	5.432624E-2
4.685000E-8	5.407957E-2
4.690000E-8	5.382604E-2
4.695000E-8	5.354168E-2
4.700000E-8	5.324019E-2
4.705000E-8	5.297639E-2
4.710000E-8	5.275027E-2
4.715000E-8	5.251731E-2
4.720000E-8	5.227063E-2
4.725000E-8	5.206850E-2
4.730000E-8	5.194516E-2
4.735000E-8	5.182525E-2
4.740000E-8	5.168479E-2
4.745000E-8	5.158543E-2
4.750000E-8	5.152376E-2
4.755000E-8	5.144497E-2
4.760000E-8	5.134561E-2
4.765000E-8	5.123598E-2
4.770000E-8	5.113320E-2
4.775000E-8	5.106125E-2
4.780000E-8	5.102357E-2
4.785000E-8	5.104070E-2
4.790000E-8	5.112292E-2
4.795000E-8	5.125311E-2
4.800000E-8	5.147580E-2
4.805000E-8	5.180127E-2
4.810000E-8	5.216785E-2
4.815000E-8	5.253786E-2
4.820000E-8	5.295584E-2
4.825000E-8	5.339436E-2
4.830000E-8	5.376437E-2
4.835000E-8	5.402818E-2
4.840000E-8	5.422689E-2
4.845000E-8	5.437763E-2
4.850000E-8	5.446671E-2
4.855000E-8	5.447356E-2
4.860000E-8	5.441189E-2
4.865000E-8	5.432967E-2
4.870000E-8	5.424744E-2
4.875000E-8	5.417549E-2
4.880000E-8	5.416522E-2
4.885000E-8	5.419948E-2
4.890000E-8	5.423716E-2
4.895000E-8	5.427828E-2
4.900000E-8	5.435365E-2
4.905000E-8	5.443245E-2
4.910000E-8	5.447698E-2
4.915000E-8	5.444958E-2
4.920000E-8	5.436050E-2
4.925000E-8	5.421661E-2
4.930000E-8	5.400077E-2
4.935000E-8	5.372669E-2
4.940000E-8	5.342177E-2
4.945000E-8	5.309973E-2
4.950000E-8	5.277426E-2
4.955000E-8	5.245221E-2
4.960000E-8	5.216785E-2
4.965000E-8	5.191775E-2
4.970000E-8	5.169849E-2
4.975000E-8	5.153747E-2
4.980000E-8	5.144839E-2
4.985000E-8	5.136617E-2
4.990000E-8	5.128394E-2
4.995000E-8	5.123940E-2
5.000000E-8	5.119144E-2
5.005000E-8	5.112292E-2
5.010000E-8	5.106125E-2
5.015000E-8	5.097218E-2
5.020000E-8	5.083171E-2
5.025000E-8	5.073235E-2
5.030000E-8	5.069809E-2
5.035000E-8	5.068096E-2
5.040000E-8	5.068782E-2
5.045000E-8	5.077689E-2
5.050000E-8	5.094819E-2
5.055000E-8	5.114005E-2
5.060000E-8	5.131135E-2
5.065000E-8	5.152719E-2
5.070000E-8	5.181497E-2
5.075000E-8	5.209933E-2
5.080000E-8	5.233915E-2
5.085000E-8	5.255157E-2
5.090000E-8	5.277768E-2
5.095000E-8	5.298667E-2
5.100000E-8	5.314427E-2
5.105000E-8	5.327103E-2
5.110000E-8	5.340122E-2
5.115000E-8	5.354511E-2
5.120000E-8	5.370956E-2
5.125000E-8	5.389799E-2
5.130000E-8	5.404188E-2
5.135000E-8	5.415494E-2
5.140000E-8	5.427828E-2
5.145000E-8	5.440161E-2
5.150000E-8	5.445300E-2
5.155000E-8	5.445643E-2
5.160000E-8	5.442902E-2
5.165000E-8	5.433309E-2
5.170000E-8	5.418920E-2
5.175000E-8	5.406586E-2
5.180000E-8	5.392882E-2
5.185000E-8	5.377465E-2
5.190000E-8	5.364446E-2
5.195000E-8	5.353141E-2
5.200000E-8	5.340122E-2
5.205000E-8	5.328131E-2
5.210000E-8	5.316482E-2
5.215000E-8	5.304149E-2
5.220000E-8	5.291815E-2
5.225000E-8	5.276740E-2
5.230000E-8	5.256870E-2
5.235000E-8	5.233915E-2
5.240000E-8	5.209933E-2
5.245000E-8	5.186636E-2
5.250000E-8	5.160941E-2
5.255000E-8	5.132163E-2
5.260000E-8	5.104755E-2
5.265000E-8	5.083171E-2
5.270000E-8	5.064670E-2
5.275000E-8	5.047540E-2
5.280000E-8	5.032466E-2
5.285000E-8	5.021845E-2
5.290000E-8	5.013623E-2
5.295000E-8	5.007456E-2
5.300000E-8	5.004373E-2
5.305000E-8	5.005058E-2
5.310000E-8	5.008827E-2
5.315000E-8	5.011910E-2
5.320000E-8	5.018762E-2
5.325000E-8	5.033836E-2
5.330000E-8	5.050966E-2
5.335000E-8	5.066383E-2
5.340000E-8	5.083514E-2
5.345000E-8	5.099958E-2
5.350000E-8	5.114348E-2
5.355000E-8	5.132163E-2
5.360000E-8	5.153062E-2
5.365000E-8	5.173618E-2
5.370000E-8	5.196914E-2
5.375000E-8	5.219869E-2
5.380000E-8	5.236314E-2
5.385000E-8	5.250018E-2
5.390000E-8	5.266462E-2
5.395000E-8	5.282907E-2
5.400000E-8	5.294213E-2
5.405000E-8	5.299695E-2
5.410000E-8	5.303121E-2
5.415000E-8	5.308945E-2
5.420000E-8	5.314769E-2
5.425000E-8	5.317510E-2
5.430000E-8	5.321279E-2
5.435000E-8	5.330186E-2
5.440000E-8	5.340122E-2
5.445000E-8	5.347659E-2
5.450000E-8	5.354854E-2
5.455000E-8	5.362391E-2
5.460000E-8	5.365817E-2
5.465000E-8	5.362733E-2
5.470000E-8	5.352798E-2
5.475000E-8	5.336353E-2
5.480000E-8	5.315112E-2
5.485000E-8	5.291130E-2
5.490000E-8	5.263722E-2
5.495000E-8	5.230489E-2
5.500000E-8	5.196914E-2
5.505000E-8	5.168479E-2
5.510000E-8	5.142441E-2
5.515000E-8	5.117088E-2
5.520000E-8	5.095162E-2
5.525000E-8	5.077004E-2
5.530000E-8	5.061587E-2
5.535000E-8	5.048911E-2
5.540000E-8	5.036235E-2
5.545000E-8	5.022873E-2
5.550000E-8	5.011910E-2
5.555000E-8	5.001289E-2
5.560000E-8	4.987243E-2
5.565000E-8	4.973196E-2
5.570000E-8	4.958807E-2
5.575000E-8	4.940306E-2
5.580000E-8	4.920778E-2
5.585000E-8	4.904676E-2
5.590000E-8	4.887888E-2
5.595000E-8	4.869388E-2
5.600000E-8	4.854313E-2
5.605000E-8	4.846091E-2
5.610000E-8	4.839924E-2
5.615000E-8	4.834100E-2
5.620000E-8	4.835128E-2
5.625000E-8	4.844378E-2
5.630000E-8	4.858082E-2
5.635000E-8	4.873499E-2
5.640000E-8	4.889259E-2
5.645000E-8	4.905361E-2
5.650000E-8	4.923176E-2
5.655000E-8	4.943390E-2
5.660000E-8	4.963946E-2
5.665000E-8	4.985187E-2
5.670000E-8	5.006771E-2
5.675000E-8	5.030410E-2
5.680000E-8	5.053022E-2
5.685000E-8	5.074606E-2
5.690000E-8	5.096190E-2
5.695000E-8	5.118801E-2
5.700000E-8	5.139700E-2
5.705000E-8	5.156145E-2
5.710000E-8	5.169506E-2
5.715000E-8	5.181497E-2
5.720000E-8	5.186294E-2
5.725000E-8	5.186636E-2
5.730000E-8	5.186636E-2
5.735000E-8	5.179784E-2
5.740000E-8	5.164025E-2
5.745000E-8	5.150663E-2
5.750000E-8	5.140385E-2
5.755000E-8	5.128737E-2
5.760000E-8	5.118459E-2
5.765000E-8	5.109209E-2
5.770000E-8	5.099273E-2
5.775000E-8	5.090366E-2
5.780000E-8	5.081801E-2
5.785000E-8	5.070837E-2
5.790000E-8	5.057133E-2
5.795000E-8	5.042059E-2
5.800000E-8	5.023901E-2
5.805000E-8	5.007456E-2
5.810000E-8	4.996150E-2
5.815000E-8	4.983131E-2
5.820000E-8	4.967372E-2
5.825000E-8	4.958807E-2
5.830000E-8	4.957094E-2
5.835000E-8	4.955038E-2
5.840000E-8	4.952983E-2
5.845000E-8	4.954696E-2
5.850000E-8	4.958122E-2
5.855000E-8	4.960520E-2
5.860000E-8	4.961205E-2
5.865000E-8	4.956409E-2
5.870000E-8	4.948529E-2
5.875000E-8	4.941677E-2
5.880000E-8	4.932084E-2
5.885000E-8	4.919065E-2
5.890000E-8	4.912213E-2
5.895000E-8	4.912213E-2
5.900000E-8	4.911185E-2
5.905000E-8	4.914269E-2
5.910000E-8	4.924547E-2
5.915000E-8	4.937566E-2
5.920000E-8	4.952297E-2
5.925000E-8	4.966001E-2
5.930000E-8	4.976965E-2
5.935000E-8	4.990669E-2
5.940000E-8	5.006428E-2
5.945000E-8	5.018762E-2
5.950000E-8	5.028355E-2
5.955000E-8	5.037948E-2
5.960000E-8	5.046855E-2
5.965000E-8	5.058161E-2
5.970000E-8	5.072893E-2
5.975000E-8	5.082143E-2
5.980000E-8	5.086254E-2
5.985000E-8	5.093449E-2
5.990000E-8	5.098931E-2
5.995000E-8	5.100301E-2
6.000000E-8	5.103727E-2
6.005000E-8	5.103384E-2
6.010000E-8	5.094134E-2
6.015000E-8	5.083171E-2
6.020000E-8	5.071865E-2
6.025000E-8	5.058161E-2
6.030000E-8	5.045827E-2
6.035000E-8	5.035549E-2
6.040000E-8	5.024929E-2
6.045000E-8	5.015336E-2
6.050000E-8	5.010540E-2
6.055000E-8	5.007456E-2
6.060000E-8	5.001289E-2
6.065000E-8	4.993409E-2
6.070000E-8	4.983131E-2
6.075000E-8	4.968400E-2
6.080000E-8	4.949899E-2
6.085000E-8	4.930028E-2
6.090000E-8	4.907074E-2
6.095000E-8	4.878296E-2
6.100000E-8	4.844721E-2
6.105000E-8	4.814914E-2
6.110000E-8	4.789219E-2
6.115000E-8	4.763182E-2
6.120000E-8	4.737829E-2
6.125000E-8	4.715903E-2
6.130000E-8	4.697745E-2
6.135000E-8	4.684041E-2
6.140000E-8	4.677874E-2
6.145000E-8	4.675476E-2
6.150000E-8	4.674105E-2
6.155000E-8	4.674448E-2
6.160000E-8	4.679930E-2
6.165000E-8	4.689180E-2
6.170000E-8	4.694661E-2
6.175000E-8	4.699115E-2
6.180000E-8	4.707338E-2
6.185000E-8	4.715903E-2
6.190000E-8	4.722412E-2
6.195000E-8	4.732005E-2
6.200000E-8	4.743653E-2
6.205000E-8	4.754274E-2
6.210000E-8	4.766265E-2
6.215000E-8	4.778256E-2
6.220000E-8	4.787506E-2
6.225000E-8	4.798470E-2
6.230000E-8	4.813201E-2
6.235000E-8	4.827591E-2
6.240000E-8	4.841980E-2
6.245000E-8	4.859452E-2
6.250000E-8	4.875897E-2
6.255000E-8	4.890629E-2
6.260000E-8	4.906389E-2
6.265000E-8	4.922148E-2
6.270000E-8	4.933454E-2
6.275000E-8	4.942362E-2
6.280000E-8	4.949214E-2
6.285000E-8	4.952640E-2
6.290000E-8	4.953325E-2
6.295000E-8	4.949214E-2
6.300000E-8	4.944075E-2
6.305000E-8	4.939621E-2
6.310000E-8	4.935167E-2
6.315000E-8	4.930028E-2
6.320000E-8	4.927973E-2
6.325000E-8	4.929000E-2
6.330000E-8	4.927973E-2
6.335000E-8	4.923861E-2
6.340000E-8	4.918037E-2
6.345000E-8	4.912556E-2
6.350000E-8	4.908444E-2
6.355000E-8	4.899537E-2
6.360000E-8	4.882749E-2
6.365000E-8	4.863906E-2
6.370000E-8	4.848147E-2
6.375000E-8	4.831017E-2
6.380000E-8	4.811146E-2
6.385000E-8	4.791617E-2
6.390000E-8	4.775515E-2
6.395000E-8	4.763182E-2
6.400000E-8	4.752561E-2
6.405000E-8	4.742968E-2
6.410000E-8	4.735431E-2
6.415000E-8	4.730977E-2
6.420000E-8	4.726866E-2
6.425000E-8	4.718986E-2
6.430000E-8	4.711106E-2
6.435000E-8	4.704939E-2
6.440000E-8	4.696032E-2
6.445000E-8	4.686439E-2
6.450000E-8	4.677874E-2
6.455000E-8	4.668966E-2
6.460000E-8	4.662114E-2
6.465000E-8	4.662457E-2
6.470000E-8	4.665883E-2
6.475000E-8	4.669309E-2
6.480000E-8	4.676504E-2
6.485000E-8	4.691578E-2
6.490000E-8	4.709051E-2
6.495000E-8	4.726523E-2
6.500000E-8	4.745709E-2
6.505000E-8	4.767978E-2
6.510000E-8	4.786821E-2
6.515000E-8	4.797784E-2
6.520000E-8	4.805322E-2
6.525000E-8	4.813544E-2
6.530000E-8	4.820396E-2
6.535000E-8	4.822109E-2
6.540000E-8	4.820739E-2
6.545000E-8	4.818683E-2
6.550000E-8	4.816970E-2
6.555000E-8	4.815600E-2
6.560000E-8	4.814572E-2
6.565000E-8	4.814914E-2
6.570000E-8	4.815942E-2
6.575000E-8	4.816627E-2
6.580000E-8	4.818683E-2
6.585000E-8	4.820396E-2
6.590000E-8	4.821424E-2
6.595000E-8	4.824850E-2
6.600000E-8	4.827933E-2
6.605000E-8	4.824165E-2
6.610000E-8	4.816970E-2
6.615000E-8	4.813201E-2
6.620000E-8	4.810461E-2
6.625000E-8	4.802581E-2
6.630000E-8	4.791960E-2
6.635000E-8	4.778256E-2
6.640000E-8	4.758043E-2
6.645000E-8	4.737487E-2
6.650000E-8	4.721042E-2
6.655000E-8	4.701171E-2
6.660000E-8	4.678559E-2
6.665000E-8	4.662457E-2
6.670000E-8	4.649781E-2
6.675000E-8	4.636419E-2
6.680000E-8	4.626826E-2
6.685000E-8	4.622030E-2
6.690000E-8	4.619974E-2
6.695000E-8	4.622373E-2
6.700000E-8	4.628539E-2
6.705000E-8	4.632993E-2
6.710000E-8	4.638132E-2
6.715000E-8	4.647725E-2
6.720000E-8	4.658003E-2
6.725000E-8	4.667253E-2
6.730000E-8	4.676504E-2
6.735000E-8	4.684041E-2
6.740000E-8	4.687467E-2
6.745000E-8	4.691235E-2
6.750000E-8	4.696374E-2
6.755000E-8	4.700828E-2
6.760000E-8	4.705282E-2
6.765000E-8	4.710421E-2
6.770000E-8	4.716245E-2
6.775000E-8	4.722069E-2
6.780000E-8	4.727894E-2
6.785000E-8	4.731320E-2
6.790000E-8	4.733375E-2
6.795000E-8	4.736459E-2
6.800000E-8	4.738514E-2
6.805000E-8	4.737144E-2
6.810000E-8	4.737487E-2
6.815000E-8	4.738514E-2
6.820000E-8	4.734403E-2
6.825000E-8	4.729607E-2
6.830000E-8	4.730292E-2
6.835000E-8	4.733375E-2
6.840000E-8	4.735088E-2
6.845000E-8	4.739200E-2
6.850000E-8	4.747765E-2
6.855000E-8	4.755987E-2
6.860000E-8	4.759756E-2
6.865000E-8	4.762839E-2
6.870000E-8	4.768663E-2
6.875000E-8	4.773117E-2
6.880000E-8	4.769691E-2
6.885000E-8	4.761811E-2
6.890000E-8	4.754617E-2
6.895000E-8	4.745024E-2
6.900000E-8	4.732005E-2
6.905000E-8	4.720356E-2
6.910000E-8	4.706995E-2
6.915000E-8	4.692948E-2
6.920000E-8	4.681300E-2
6.925000E-8	4.669652E-2
6.930000E-8	4.661087E-2
6.935000E-8	4.658003E-2
6.940000E-8	4.656633E-2
6.945000E-8	4.658003E-2
6.950000E-8	4.662457E-2
6.955000E-8	4.663485E-2
6.960000E-8	4.660744E-2
6.965000E-8	4.661087E-2
6.970000E-8	4.657318E-2
6.975000E-8	4.642586E-2
6.980000E-8	4.626141E-2
6.985000E-8	4.613122E-2
6.990000E-8	4.595992E-2
6.995000E-8	4.575436E-2
7.000000E-8	4.558991E-2
7.005000E-8	4.546315E-2
7.010000E-8	4.535695E-2
7.015000E-8	4.531926E-2
7.020000E-8	4.535009E-2
7.025000E-8	4.541176E-2
7.030000E-8	4.549399E-2
7.035000E-8	4.559334E-2
7.040000E-8	4.569612E-2
7.045000E-8	4.581946E-2
7.050000E-8	4.594279E-2
7.055000E-8	4.602844E-2
7.060000E-8	4.610382E-2
7.065000E-8	4.616548E-2
7.070000E-8	4.616206E-2
7.075000E-8	4.613465E-2
7.080000E-8	4.614150E-2
7.085000E-8	4.614150E-2
7.090000E-8	4.611067E-2
7.095000E-8	4.612780E-2
7.100000E-8	4.622715E-2
7.105000E-8	4.634364E-2
7.110000E-8	4.647382E-2
7.115000E-8	4.664513E-2
7.120000E-8	4.681643E-2
7.125000E-8	4.695347E-2
7.130000E-8	4.708365E-2
7.135000E-8	4.720699E-2
7.140000E-8	4.727551E-2
7.145000E-8	4.727551E-2
7.150000E-8	4.721384E-2
7.155000E-8	4.711791E-2
7.160000E-8	4.699800E-2
7.165000E-8	4.688837E-2
7.170000E-8	4.679587E-2
7.175000E-8	4.669309E-2
7.180000E-8	4.661429E-2
7.185000E-8	4.659373E-2
7.190000E-8	4.661087E-2
7.195000E-8	4.664170E-2
7.200000E-8	4.668624E-2
7.205000E-8	4.672050E-2
7.210000E-8	4.672050E-2
7.215000E-8	4.668281E-2
7.220000E-8	4.663142E-2
7.225000E-8	4.655262E-2
7.230000E-8	4.643956E-2
7.235000E-8	4.630595E-2
7.240000E-8	4.616206E-2
7.245000E-8	4.603872E-2
7.250000E-8	4.594279E-2
7.255000E-8	4.584686E-2
7.260000E-8	4.574066E-2
7.265000E-8	4.567899E-2
7.270000E-8	4.565158E-2
7.275000E-8	4.560019E-2
7.280000E-8	4.550426E-2
7.285000E-8	4.541176E-2
7.290000E-8	4.535352E-2
7.295000E-8	4.529870E-2
7.300000E-8	4.522676E-2
7.305000E-8	4.518564E-2
7.310000E-8	4.518907E-2
7.315000E-8	4.520277E-2
7.320000E-8	4.521991E-2
7.325000E-8	4.527815E-2
7.330000E-8	4.537408E-2
7.335000E-8	4.549741E-2
7.340000E-8	4.564816E-2
7.345000E-8	4.576807E-2
7.350000E-8	4.582288E-2
7.355000E-8	4.583316E-2
7.360000E-8	4.580233E-2
7.365000E-8	4.570297E-2
7.370000E-8	4.554880E-2
7.375000E-8	4.538093E-2
7.380000E-8	4.519250E-2
7.385000E-8	4.499379E-2
7.390000E-8	4.483619E-2
7.395000E-8	4.470943E-2
7.400000E-8	4.463063E-2
7.405000E-8	4.462378E-2
7.410000E-8	4.468202E-2
7.415000E-8	4.477795E-2
7.420000E-8	4.491499E-2
7.425000E-8	4.504860E-2
7.430000E-8	4.514111E-2
7.435000E-8	4.523018E-2
7.440000E-8	4.532269E-2
7.445000E-8	4.537065E-2
7.450000E-8	4.537065E-2
7.455000E-8	4.535695E-2
7.460000E-8	4.529185E-2
7.465000E-8	4.516166E-2
7.470000E-8	4.502462E-2
7.475000E-8	4.493555E-2
7.480000E-8	4.483962E-2
7.485000E-8	4.473684E-2
7.490000E-8	4.465461E-2
7.495000E-8	4.458267E-2
7.500000E-8	4.450387E-2
7.505000E-8	4.444220E-2
7.510000E-8	4.439424E-2
7.515000E-8	4.436683E-2
7.520000E-8	4.434970E-2
7.525000E-8	4.434285E-2
7.530000E-8	4.437711E-2
7.535000E-8	4.441479E-2
7.540000E-8	4.442164E-2
7.545000E-8	4.448674E-2
7.550000E-8	4.459980E-2
7.555000E-8	4.466832E-2
7.560000E-8	4.469573E-2
7.565000E-8	4.474369E-2
7.570000E-8	4.476767E-2
7.575000E-8	4.475397E-2
7.580000E-8	4.476082E-2
7.585000E-8	4.475054E-2
7.590000E-8	4.468887E-2
7.595000E-8	4.465119E-2
7.600000E-8	4.462378E-2
7.605000E-8	4.458952E-2
7.610000E-8	4.462721E-2
7.615000E-8	4.468887E-2
7.620000E-8	4.471628E-2
7.625000E-8	4.480878E-2
7.630000E-8	4.496981E-2
7.635000E-8	4.506573E-2
7.640000E-8	4.514453E-2
7.645000E-8	4.527815E-2
7.650000E-8	4.537065E-2
7.655000E-8	4.541519E-2
7.660000E-8	4.545973E-2
7.665000E-8	4.543917E-2
7.670000E-8	4.537065E-2
7.675000E-8	4.530898E-2
7.680000E-8	4.523704E-2
7.685000E-8	4.513425E-2
7.690000E-8	4.504518E-2
7.695000E-8	4.498008E-2
7.700000E-8	4.491499E-2
7.705000E-8	4.488073E-2
7.710000E-8	4.484990E-2
7.715000E-8	4.480193E-2
7.720000E-8	4.478138E-2
7.725000E-8	4.478823E-2
7.730000E-8	4.475397E-2
7.735000E-8	4.469915E-2
7.740000E-8	4.466489E-2
7.745000E-8	4.457924E-2
7.750000E-8	4.445590E-2
7.755000E-8	4.435312E-2
7.760000E-8	4.425377E-2
7.765000E-8	4.412358E-2
7.770000E-8	4.402080E-2
7.775000E-8	4.391802E-2
7.780000E-8	4.377070E-2
7.785000E-8	4.365422E-2
7.790000E-8	4.361311E-2
7.795000E-8	4.357542E-2
7.800000E-8	4.352403E-2
7.805000E-8	4.345894E-2
7.810000E-8	4.339384E-2
7.815000E-8	4.336643E-2
7.820000E-8	4.339727E-2
7.825000E-8	4.340069E-2
7.830000E-8	4.336643E-2
7.835000E-8	4.336986E-2
7.840000E-8	4.339042E-2
7.845000E-8	4.340412E-2
7.850000E-8	4.340755E-2
7.855000E-8	4.336643E-2
7.860000E-8	4.334245E-2
7.865000E-8	4.338356E-2
7.870000E-8	4.341782E-2
7.875000E-8	4.342125E-2
7.880000E-8	4.347949E-2
7.885000E-8	4.359940E-2
7.890000E-8	4.371589E-2
7.895000E-8	4.385293E-2
7.900000E-8	4.400710E-2
7.905000E-8	4.413386E-2
7.910000E-8	4.425377E-2
7.915000E-8	4.438396E-2
7.920000E-8	4.443192E-2
7.925000E-8	4.439424E-2
7.930000E-8	4.434285E-2
7.935000E-8	4.427090E-2
7.940000E-8	4.416812E-2
7.945000E-8	4.405849E-2
7.950000E-8	4.394886E-2
7.955000E-8	4.385293E-2
7.960000E-8	4.380839E-2
7.965000E-8	4.381524E-2
7.970000E-8	4.384265E-2
7.975000E-8	4.388719E-2
7.980000E-8	4.396256E-2
7.985000E-8	4.404821E-2
7.990000E-8	4.413729E-2
7.995000E-8	4.423664E-2
8.000000E-8	4.428460E-2
8.005000E-8	4.425720E-2
8.010000E-8	4.419553E-2
8.015000E-8	4.413729E-2
8.020000E-8	4.404821E-2
8.025000E-8	4.392145E-2
8.030000E-8	4.379811E-2
8.035000E-8	4.371246E-2
8.040000E-8	4.364051E-2
8.045000E-8	4.359255E-2
8.050000E-8	4.359940E-2
8.055000E-8	4.364737E-2
8.060000E-8	4.371246E-2
8.065000E-8	4.377755E-2
8.070000E-8	4.384608E-2
8.075000E-8	4.392487E-2
8.080000E-8	4.401052E-2
8.085000E-8	4.403793E-2
8.090000E-8	4.402423E-2
8.095000E-8	4.402765E-2
8.100000E-8	4.401738E-2
8.105000E-8	4.396256E-2
8.110000E-8	4.388034E-2
8.115000E-8	4.373987E-2
8.120000E-8	4.358227E-2
8.125000E-8	4.346579E-2
8.130000E-8	4.332875E-2
8.135000E-8	4.314374E-2
8.140000E-8	4.297587E-2
8.145000E-8	4.284568E-2
8.150000E-8	4.272234E-2
8.155000E-8	4.262984E-2
8.160000E-8	4.256817E-2
8.165000E-8	4.256132E-2
8.170000E-8	4.260586E-2
8.175000E-8	4.268808E-2
8.180000E-8	4.275318E-2
8.185000E-8	4.283198E-2
8.190000E-8	4.294503E-2
8.195000E-8	4.304439E-2
8.200000E-8	4.311976E-2
8.205000E-8	4.318486E-2
8.210000E-8	4.319171E-2
8.215000E-8	4.315745E-2
8.220000E-8	4.314032E-2
8.225000E-8	4.312319E-2
8.230000E-8	4.310948E-2
8.235000E-8	4.314032E-2
8.240000E-8	4.321569E-2
8.245000E-8	4.327393E-2
8.250000E-8	4.335273E-2
8.255000E-8	4.350005E-2
8.260000E-8	4.364737E-2
8.265000E-8	4.376385E-2
8.270000E-8	4.387348E-2
8.275000E-8	4.393515E-2
8.280000E-8	4.393858E-2
8.285000E-8	4.394543E-2
8.290000E-8	4.391802E-2
8.295000E-8	4.379811E-2
8.300000E-8	4.362338E-2
8.305000E-8	4.345551E-2
8.310000E-8	4.326023E-2
8.315000E-8	4.304781E-2
8.320000E-8	4.286281E-2
8.325000E-8	4.269494E-2
8.330000E-8	4.254762E-2
8.335000E-8	4.242428E-2
8.340000E-8	4.230094E-2
8.345000E-8	4.219816E-2
8.350000E-8	4.216048E-2
8.355000E-8	4.215363E-2
8.360000E-8	4.214677E-2
8.365000E-8	4.214677E-2
8.370000E-8	4.217761E-2
8.375000E-8	4.220844E-2
8.380000E-8	4.224270E-2
8.385000E-8	4.229752E-2
8.390000E-8	4.235919E-2
8.395000E-8	4.238317E-2
8.400000E-8	4.237632E-2
8.405000E-8	4.235233E-2
8.410000E-8	4.231465E-2
8.415000E-8	4.224270E-2
8.420000E-8	4.216048E-2
8.425000E-8	4.209538E-2
8.430000E-8	4.202344E-2
8.435000E-8	4.193779E-2
8.440000E-8	4.187269E-2
8.445000E-8	4.183158E-2
8.450000E-8	4.178704E-2
8.455000E-8	4.176649E-2
8.460000E-8	4.181103E-2
8.465000E-8	4.188640E-2
8.470000E-8	4.196520E-2
8.475000E-8	4.207140E-2
8.480000E-8	4.219816E-2
8.485000E-8	4.231465E-2
8.490000E-8	4.240030E-2
8.495000E-8	4.244826E-2
8.500000E-8	4.247910E-2
8.505000E-8	4.248938E-2
8.510000E-8	4.246539E-2
8.515000E-8	4.241743E-2
8.520000E-8	4.235576E-2
8.525000E-8	4.228039E-2
8.530000E-8	4.220502E-2
8.535000E-8	4.214335E-2
8.540000E-8	4.207825E-2
8.545000E-8	4.202344E-2
8.550000E-8	4.202686E-2
8.555000E-8	4.206112E-2
8.560000E-8	4.207825E-2
8.565000E-8	4.210566E-2
8.570000E-8	4.212279E-2
8.575000E-8	4.210909E-2
8.580000E-8	4.209881E-2
8.585000E-8	4.208511E-2
8.590000E-8	4.201316E-2
8.595000E-8	4.190695E-2
8.600000E-8	4.180417E-2
8.605000E-8	4.170482E-2
8.610000E-8	4.159176E-2
8.615000E-8	4.147185E-2
8.620000E-8	4.135879E-2
8.625000E-8	4.126629E-2
8.630000E-8	4.119434E-2
8.635000E-8	4.113610E-2
8.640000E-8	4.111212E-2
8.645000E-8	4.114295E-2
8.650000E-8	4.117036E-2
8.655000E-8	4.119092E-2
8.660000E-8	4.127314E-2
8.665000E-8	4.138620E-2
8.670000E-8	4.146500E-2
8.675000E-8	4.154037E-2
8.680000E-8	4.162945E-2
8.685000E-8	4.169797E-2
8.690000E-8	4.175621E-2
8.695000E-8	4.181103E-2
8.700000E-8	4.182473E-2
8.705000E-8	4.178704E-2
8.710000E-8	4.174250E-2
8.715000E-8	4.169797E-2
8.720000E-8	4.159519E-2
8.725000E-8	4.147185E-2
8.730000E-8	4.136564E-2
8.735000E-8	4.123888E-2
8.740000E-8	4.110527E-2
8.745000E-8	4.101619E-2
8.750000E-8	4.095110E-2
8.755000E-8	4.088258E-2
8.760000E-8	4.083119E-2
8.765000E-8	4.080720E-2
8.770000E-8	4.080378E-2
8.775000E-8	4.081063E-2
8.780000E-8	4.081063E-2
8.785000E-8	4.078665E-2
8.790000E-8	4.075581E-2
8.795000E-8	4.072841E-2
8.800000E-8	4.070785E-2
8.805000E-8	4.070785E-2
8.810000E-8	4.073868E-2
8.815000E-8	4.077980E-2
8.820000E-8	4.083461E-2
8.825000E-8	4.092711E-2
8.830000E-8	4.105045E-2
8.835000E-8	4.118407E-2
8.840000E-8	4.130398E-2
8.845000E-8	4.138963E-2
8.850000E-8	4.147185E-2
8.855000E-8	4.156093E-2
8.860000E-8	4.162945E-2
8.865000E-8	4.165343E-2
8.870000E-8	4.163972E-2
8.875000E-8	4.161232E-2
8.880000E-8	4.156435E-2
8.885000E-8	4.148555E-2
8.890000E-8	4.138963E-2
8.895000E-8	4.130740E-2
8.900000E-8	4.123546E-2
8.905000E-8	4.114981E-2
8.910000E-8	4.105388E-2
8.915000E-8	4.099906E-2
8.920000E-8	4.098536E-2
8.925000E-8	4.096480E-2
8.930000E-8	4.095110E-2
8.935000E-8	4.095795E-2
8.940000E-8	4.096823E-2
8.945000E-8	4.098193E-2
8.950000E-8	4.101962E-2
8.955000E-8	4.106758E-2
8.960000E-8	4.106758E-2
8.965000E-8	4.102647E-2
8.970000E-8	4.100591E-2
8.975000E-8	4.094767E-2
8.980000E-8	4.083119E-2
8.985000E-8	4.076952E-2
8.990000E-8	4.076609E-2
8.995000E-8	4.067702E-2
9.000000E-8	4.050914E-2
9.005000E-8	4.043720E-2
9.010000E-8	4.042007E-2
9.015000E-8	4.034127E-2
9.020000E-8	4.027275E-2
9.025000E-8	4.028645E-2
9.030000E-8	4.030015E-2
9.035000E-8	4.030358E-2
9.040000E-8	4.036867E-2
9.045000E-8	4.045433E-2
9.050000E-8	4.051257E-2
9.055000E-8	4.057766E-2
9.060000E-8	4.065646E-2
9.065000E-8	4.069072E-2
9.070000E-8	4.071128E-2
9.075000E-8	4.074554E-2
9.080000E-8	4.076609E-2
9.085000E-8	4.074896E-2
9.090000E-8	4.071128E-2
9.095000E-8	4.067359E-2
9.100000E-8	4.064618E-2
9.105000E-8	4.065303E-2
9.110000E-8	4.068387E-2
9.115000E-8	4.069757E-2
9.120000E-8	4.072498E-2
9.125000E-8	4.079007E-2
9.130000E-8	4.085517E-2
9.135000E-8	4.089971E-2
9.140000E-8	4.094767E-2
9.145000E-8	4.101619E-2
9.150000E-8	4.106758E-2
9.155000E-8	4.105730E-2
9.160000E-8	4.102647E-2
9.165000E-8	4.099906E-2
9.170000E-8	4.094767E-2
9.175000E-8	4.089628E-2
9.180000E-8	4.085517E-2
9.185000E-8	4.078665E-2
9.190000E-8	4.068729E-2
9.195000E-8	4.060164E-2
9.200000E-8	4.051599E-2
9.205000E-8	4.039951E-2
9.210000E-8	4.031043E-2
9.215000E-8	4.025562E-2
9.220000E-8	4.018024E-2
9.225000E-8	4.009459E-2
9.230000E-8	4.006376E-2
9.235000E-8	4.007746E-2
9.240000E-8	4.008774E-2
9.245000E-8	4.011858E-2
9.250000E-8	4.019737E-2
9.255000E-8	4.030358E-2
9.260000E-8	4.041321E-2
9.265000E-8	4.051599E-2
9.270000E-8	4.060164E-2
9.275000E-8	4.064961E-2
9.280000E-8	4.068387E-2
9.285000E-8	4.069415E-2
9.290000E-8	4.063590E-2
9.295000E-8	4.053998E-2
9.300000E-8	4.043034E-2
9.305000E-8	4.030015E-2
9.310000E-8	4.015969E-2
9.315000E-8	4.003978E-2
9.320000E-8	3.992672E-2
9.325000E-8	3.983764E-2
9.330000E-8	3.980338E-2
9.335000E-8	3.981024E-2
9.340000E-8	3.984450E-2
9.345000E-8	3.993357E-2
9.350000E-8	4.004320E-2
9.355000E-8	4.013571E-2
9.360000E-8	4.023849E-2
9.365000E-8	4.034469E-2
9.370000E-8	4.039266E-2
9.375000E-8	4.042349E-2
9.380000E-8	4.045775E-2
9.385000E-8	4.044747E-2
9.390000E-8	4.039608E-2
9.395000E-8	4.036182E-2
9.400000E-8	4.030701E-2
9.405000E-8	4.022136E-2
9.410000E-8	4.016311E-2
9.415000E-8	4.010487E-2
9.420000E-8	4.003635E-2
9.425000E-8	4.000894E-2
9.430000E-8	4.000209E-2
9.435000E-8	3.995755E-2
9.440000E-8	3.994042E-2
9.445000E-8	3.996441E-2
9.450000E-8	3.991987E-2
9.455000E-8	3.985477E-2
9.460000E-8	3.984107E-2
9.465000E-8	3.981709E-2
9.470000E-8	3.972459E-2
9.475000E-8	3.964236E-2
9.480000E-8	3.958069E-2
9.485000E-8	3.950875E-2
9.490000E-8	3.945050E-2
9.495000E-8	3.941282E-2
9.500000E-8	3.933402E-2
9.505000E-8	3.927920E-2
9.510000E-8	3.930661E-2
9.515000E-8	3.933059E-2
9.520000E-8	3.932374E-2
9.525000E-8	3.934087E-2
9.530000E-8	3.938198E-2
9.535000E-8	3.941967E-2
9.540000E-8	3.944365E-2
9.545000E-8	3.943337E-2
9.550000E-8	3.939226E-2
9.555000E-8	3.935115E-2
9.560000E-8	3.934430E-2
9.565000E-8	3.935458E-2
9.570000E-8	3.937513E-2
9.575000E-8	3.937856E-2
9.580000E-8	3.937171E-2
9.585000E-8	3.939226E-2
9.590000E-8	3.944708E-2
9.595000E-8	3.950189E-2
9.600000E-8	3.953273E-2
9.605000E-8	3.956014E-2
9.610000E-8	3.963208E-2
9.615000E-8	3.971088E-2
9.620000E-8	3.975542E-2
9.625000E-8	3.979311E-2
9.630000E-8	3.987190E-2
9.635000E-8	3.993357E-2
9.640000E-8	3.994728E-2
9.645000E-8	3.997811E-2
9.650000E-8	4.001237E-2
9.655000E-8	4.000552E-2
9.660000E-8	4.001237E-2
9.665000E-8	4.003635E-2
9.670000E-8	4.002950E-2
9.675000E-8	3.998154E-2
9.680000E-8	3.991302E-2
9.685000E-8	3.985820E-2
9.690000E-8	3.979996E-2
9.695000E-8	3.973144E-2
9.700000E-8	3.964921E-2
9.705000E-8	3.956699E-2
9.710000E-8	3.949847E-2
9.715000E-8	3.942652E-2
9.720000E-8	3.935458E-2
9.725000E-8	3.931346E-2
9.730000E-8	3.929291E-2
9.735000E-8	3.924494E-2
9.740000E-8	3.920041E-2
9.745000E-8	3.921411E-2
9.750000E-8	3.925180E-2
9.755000E-8	3.925865E-2
9.760000E-8	3.925865E-2
9.765000E-8	3.928606E-2
9.770000E-8	3.928263E-2
9.775000E-8	3.924494E-2
9.780000E-8	3.920041E-2
9.785000E-8	3.912846E-2
9.790000E-8	3.901540E-2
9.795000E-8	3.889549E-2
9.800000E-8	3.878928E-2
9.805000E-8	3.868650E-2
9.810000E-8	3.859058E-2
9.815000E-8	3.852891E-2
9.820000E-8	3.851520E-2
9.825000E-8	3.856659E-2
9.830000E-8	3.864882E-2
9.835000E-8	3.874817E-2
9.840000E-8	3.887836E-2
9.845000E-8	3.902911E-2
9.850000E-8	3.916957E-2
9.855000E-8	3.927920E-2
9.860000E-8	3.935115E-2
9.865000E-8	3.938198E-2
9.870000E-8	3.937171E-2
9.875000E-8	3.934772E-2
9.880000E-8	3.927235E-2
9.885000E-8	3.913531E-2
9.890000E-8	3.901883E-2
9.895000E-8	3.894345E-2
9.900000E-8	3.883382E-2
9.905000E-8	3.872076E-2
9.910000E-8	3.870021E-2
9.915000E-8	3.874475E-2
9.920000E-8	3.877215E-2
9.925000E-8	3.881327E-2
9.930000E-8	3.888179E-2
9.935000E-8	3.890577E-2
9.940000E-8	3.891605E-2
9.945000E-8	3.896744E-2
9.950000E-8	3.899484E-2
9.955000E-8	3.900170E-2
9.960000E-8	3.902568E-2
9.965000E-8	3.902911E-2
9.970000E-8	3.900855E-2
9.975000E-8	3.898457E-2
9.980000E-8	3.895031E-2
9.985000E-8	3.893318E-2
9.990000E-8	3.891947E-2
9.995000E-8	3.885780E-2
1.000000E-7	3.876873E-2
1.000500E-7	3.867623E-2
1.001000E-7	3.856659E-2
1.001500E-7	3.842613E-2
1.002000E-7	3.828909E-2
1.002500E-7	3.816918E-2
1.003000E-7	3.805269E-2
1.003500E-7	3.796362E-2
1.004000E-7	3.791908E-2
1.004500E-7	3.793621E-2
1.005000E-7	3.799788E-2
1.005500E-7	3.809038E-2
1.006000E-7	3.819658E-2
1.006500E-7	3.831650E-2
1.007000E-7	3.844326E-2
1.007500E-7	3.855289E-2
1.008000E-7	3.863854E-2
1.008500E-7	3.870706E-2
1.009000E-7	3.875160E-2
1.009500E-7	3.873789E-2
1.010000E-7	3.867965E-2
1.010500E-7	3.861798E-2
1.011000E-7	3.855632E-2
1.011500E-7	3.849122E-2
1.012000E-7	3.841585E-2
1.012500E-7	3.830279E-2
1.013000E-7	3.820344E-2
1.013500E-7	3.816918E-2
1.014000E-7	3.815205E-2
1.014500E-7	3.811436E-2
1.015000E-7	3.809380E-2
1.015500E-7	3.808010E-2
1.016000E-7	3.805954E-2
1.016500E-7	3.805612E-2
1.017000E-7	3.805612E-2
1.017500E-7	3.806297E-2
1.018000E-7	3.808010E-2
1.018500E-7	3.809723E-2
1.019000E-7	3.814177E-2
1.019500E-7	3.822399E-2
1.020000E-7	3.829936E-2
1.020500E-7	3.838844E-2
1.021000E-7	3.850493E-2
1.021500E-7	3.860085E-2
1.022000E-7	3.868308E-2
1.022500E-7	3.876873E-2
1.023000E-7	3.881669E-2
1.023500E-7	3.880984E-2
1.024000E-7	3.878586E-2
1.024500E-7	3.872419E-2
1.025000E-7	3.860085E-2
1.025500E-7	3.845354E-2
1.026000E-7	3.831650E-2
1.026500E-7	3.815890E-2
1.027000E-7	3.799445E-2
1.027500E-7	3.784713E-2
1.028000E-7	3.771352E-2
1.028500E-7	3.759703E-2
1.029000E-7	3.754222E-2
1.029500E-7	3.753879E-2
1.030000E-7	3.752851E-2
1.030500E-7	3.754222E-2
1.031000E-7	3.761074E-2
1.031500E-7	3.767926E-2
1.032000E-7	3.775120E-2
1.032500E-7	3.787111E-2
1.033000E-7	3.800473E-2
1.033500E-7	3.810066E-2
1.034000E-7	3.816575E-2
1.034500E-7	3.821029E-2
1.035000E-7	3.823770E-2
1.035500E-7	3.823770E-2
1.036000E-7	3.822742E-2
1.036500E-7	3.819316E-2
1.037000E-7	3.812806E-2
1.037500E-7	3.804927E-2
1.038000E-7	3.798075E-2
1.038500E-7	3.792936E-2
1.039000E-7	3.791223E-2
1.039500E-7	3.791908E-2
1.040000E-7	3.792936E-2
1.040500E-7	3.795676E-2
1.041000E-7	3.802871E-2
1.041500E-7	3.811779E-2
1.042000E-7	3.817945E-2
1.042500E-7	3.820001E-2
1.043000E-7	3.821714E-2
1.043500E-7	3.822057E-2
1.044000E-7	3.815205E-2
1.044500E-7	3.806297E-2
1.045000E-7	3.799788E-2
1.045500E-7	3.792250E-2
1.046000E-7	3.779232E-2
1.046500E-7	3.766898E-2
1.047000E-7	3.758333E-2
1.047500E-7	3.751138E-2
1.048000E-7	3.745999E-2
1.048500E-7	3.743601E-2
1.049000E-7	3.741545E-2
1.049500E-7	3.742916E-2
1.050000E-7	3.748740E-2
1.050500E-7	3.753879E-2
1.051000E-7	3.757648E-2
1.051500E-7	3.763815E-2
1.052000E-7	3.766213E-2
1.052500E-7	3.765185E-2
1.053000E-7	3.765528E-2
1.053500E-7	3.764842E-2
1.054000E-7	3.762101E-2
1.054500E-7	3.760046E-2
1.055000E-7	3.757648E-2
1.055500E-7	3.754564E-2
1.056000E-7	3.752851E-2
1.056500E-7	3.756620E-2
1.057000E-7	3.762787E-2
1.057500E-7	3.767241E-2
1.058000E-7	3.769639E-2
1.058500E-7	3.774435E-2
1.059000E-7	3.781630E-2
1.059500E-7	3.785398E-2
1.060000E-7	3.787797E-2
1.060500E-7	3.790195E-2
1.061000E-7	3.787797E-2
1.061500E-7	3.778204E-2
1.062000E-7	3.771694E-2
1.062500E-7	3.769639E-2
1.063000E-7	3.765870E-2
1.063500E-7	3.762101E-2
1.064000E-7	3.764157E-2
1.064500E-7	3.766555E-2
1.065000E-7	3.767241E-2
1.065500E-7	3.771694E-2
1.066000E-7	3.777519E-2
1.066500E-7	3.781630E-2
1.067000E-7	3.787797E-2
1.067500E-7	3.792250E-2
1.068000E-7	3.787797E-2
1.068500E-7	3.777519E-2
1.069000E-7	3.767583E-2
1.069500E-7	3.753879E-2
1.070000E-7	3.734693E-2
1.070500E-7	3.718249E-2
1.071000E-7	3.705572E-2
1.071500E-7	3.694267E-2
1.072000E-7	3.686044E-2
1.072500E-7	3.682961E-2
1.073000E-7	3.682961E-2
1.073500E-7	3.688100E-2
1.074000E-7	3.699063E-2
1.074500E-7	3.714823E-2
1.075000E-7	3.730582E-2
1.075500E-7	3.742231E-2
1.076000E-7	3.752166E-2
1.076500E-7	3.762444E-2
1.077000E-7	3.767926E-2
1.077500E-7	3.769296E-2
1.078000E-7	3.770324E-2
1.078500E-7	3.766213E-2
1.079000E-7	3.756620E-2
1.079500E-7	3.747370E-2
1.080000E-7	3.739147E-2
1.080500E-7	3.728869E-2
1.081000E-7	3.722017E-2
1.081500E-7	3.718591E-2
1.082000E-7	3.713452E-2
1.082500E-7	3.706258E-2
1.083000E-7	3.702489E-2
1.083500E-7	3.700091E-2
1.084000E-7	3.694609E-2
1.084500E-7	3.690155E-2
1.085000E-7	3.691183E-2
1.085500E-7	3.690840E-2
1.086000E-7	3.685701E-2
1.086500E-7	3.678507E-2
1.087000E-7	3.670970E-2
1.087500E-7	3.662062E-2
1.088000E-7	3.652469E-2
1.088500E-7	3.645617E-2
1.089000E-7	3.639108E-2
1.089500E-7	3.630885E-2
1.090000E-7	3.624376E-2
1.090500E-7	3.621635E-2
1.091000E-7	3.620607E-2
1.091500E-7	3.624033E-2
1.092000E-7	3.632941E-2
1.092500E-7	3.642534E-2
1.093000E-7	3.649386E-2
1.093500E-7	3.657266E-2
1.094000E-7	3.665831E-2
1.094500E-7	3.672340E-2
1.095000E-7	3.676794E-2
1.095500E-7	3.677479E-2
1.096000E-7	3.671997E-2
1.096500E-7	3.663432E-2
1.097000E-7	3.652812E-2
1.097500E-7	3.640478E-2
1.098000E-7	3.627802E-2
1.098500E-7	3.614783E-2
1.099000E-7	3.602449E-2
1.099500E-7	3.595597E-2
1.100000E-7	3.593884E-2
1.100500E-7	3.594227E-2
1.101000E-7	3.599709E-2
1.101500E-7	3.609987E-2
1.102000E-7	3.620265E-2
1.102500E-7	3.631228E-2
1.103000E-7	3.643904E-2
1.103500E-7	3.657608E-2
1.104000E-7	3.670627E-2
1.104500E-7	3.678164E-2
1.105000E-7	3.682618E-2
1.105500E-7	3.688100E-2
1.106000E-7	3.687757E-2
1.106500E-7	3.678507E-2
1.107000E-7	3.667201E-2
1.107500E-7	3.654182E-2
1.108000E-7	3.634311E-2
1.108500E-7	3.614783E-2
1.109000E-7	3.601764E-2
1.109500E-7	3.589431E-2
1.110000E-7	3.575727E-2
1.110500E-7	3.568189E-2
1.111000E-7	3.565449E-2
1.111500E-7	3.564763E-2
1.112000E-7	3.567847E-2
1.112500E-7	3.572643E-2
1.113000E-7	3.575727E-2
1.113500E-7	3.580180E-2
1.114000E-7	3.587032E-2
1.114500E-7	3.593884E-2
1.115000E-7	3.600394E-2
1.115500E-7	3.603477E-2
1.116000E-7	3.603477E-2
1.116500E-7	3.606218E-2
1.117000E-7	3.612042E-2
1.117500E-7	3.614098E-2
1.118000E-7	3.616496E-2
1.118500E-7	3.623691E-2
1.119000E-7	3.629172E-2
1.119500E-7	3.630543E-2
1.120000E-7	3.633969E-2
1.120500E-7	3.640136E-2
1.121000E-7	3.645617E-2
1.121500E-7	3.648701E-2
1.122000E-7	3.649386E-2
1.122500E-7	3.648701E-2
1.123000E-7	3.646645E-2
1.123500E-7	3.642534E-2
1.124000E-7	3.639793E-2
1.124500E-7	3.638765E-2
1.125000E-7	3.636024E-2
1.125500E-7	3.631571E-2
1.126000E-7	3.629858E-2
1.126500E-7	3.630885E-2
1.127000E-7	3.632256E-2
1.127500E-7	3.633969E-2
1.128000E-7	3.636367E-2
1.128500E-7	3.639108E-2
1.129000E-7	3.640821E-2
1.129500E-7	3.638423E-2
1.130000E-7	3.630885E-2
1.130500E-7	3.623691E-2
1.131000E-7	3.619922E-2
1.131500E-7	3.612385E-2
1.132000E-7	3.600051E-2
1.132500E-7	3.591486E-2
1.133000E-7	3.589431E-2
1.133500E-7	3.588745E-2
1.134000E-7	3.590116E-2
1.134500E-7	3.595597E-2
1.135000E-7	3.605190E-2
1.135500E-7	3.618552E-2
1.136000E-7	3.631228E-2
1.136500E-7	3.640136E-2
1.137000E-7	3.649043E-2
1.137500E-7	3.656923E-2
1.138000E-7	3.662405E-2
1.138500E-7	3.666516E-2
1.139000E-7	3.668571E-2
1.139500E-7	3.664803E-2
1.140000E-7	3.657608E-2
1.140500E-7	3.648358E-2
1.141000E-7	3.638765E-2
1.141500E-7	3.629172E-2
1.142000E-7	3.617524E-2
1.142500E-7	3.603820E-2
1.143000E-7	3.595255E-2
1.143500E-7	3.591829E-2
1.144000E-7	3.583949E-2
1.144500E-7	3.575727E-2
1.145000E-7	3.576069E-2
1.145500E-7	3.577440E-2
1.146000E-7	3.574699E-2
1.146500E-7	3.572986E-2
1.147000E-7	3.576754E-2
1.147500E-7	3.579838E-2
1.148000E-7	3.583606E-2
1.148500E-7	3.589088E-2
1.149000E-7	3.591829E-2
1.149500E-7	3.595255E-2
1.150000E-7	3.598681E-2
1.150500E-7	3.599366E-2
1.151000E-7	3.599709E-2
1.151500E-7	3.601764E-2
1.152000E-7	3.599366E-2
1.152500E-7	3.595255E-2
1.153000E-7	3.593199E-2
1.153500E-7	3.588403E-2
1.154000E-7	3.579495E-2
1.154500E-7	3.571615E-2
1.155000E-7	3.565449E-2
1.155500E-7	3.558939E-2
1.156000E-7	3.551402E-2
1.156500E-7	3.544892E-2
1.157000E-7	3.538726E-2
1.157500E-7	3.534614E-2
1.158000E-7	3.534957E-2
1.158500E-7	3.535642E-2
1.159000E-7	3.534957E-2
1.159500E-7	3.537355E-2
1.160000E-7	3.541466E-2
1.160500E-7	3.541809E-2
1.161000E-7	3.542494E-2
1.161500E-7	3.544892E-2
1.162000E-7	3.542837E-2
1.162500E-7	3.538040E-2
1.163000E-7	3.537355E-2
1.163500E-7	3.536670E-2
1.164000E-7	3.529818E-2
1.164500E-7	3.523994E-2
1.165000E-7	3.522623E-2
1.165500E-7	3.518512E-2
1.166000E-7	3.513031E-2
1.166500E-7	3.514401E-2
1.167000E-7	3.518170E-2
1.167500E-7	3.518855E-2
1.168000E-7	3.522281E-2
1.168500E-7	3.533244E-2
1.169000E-7	3.542152E-2
1.169500E-7	3.549004E-2
1.170000E-7	3.560995E-2
1.170500E-7	3.574014E-2
1.171000E-7	3.578467E-2
1.171500E-7	3.578810E-2
1.172000E-7	3.579153E-2
1.172500E-7	3.575384E-2
1.173000E-7	3.565449E-2
1.173500E-7	3.552430E-2
1.174000E-7	3.536670E-2
1.174500E-7	3.522966E-2
1.175000E-7	3.510632E-2
1.175500E-7	3.495901E-2
1.176000E-7	3.483909E-2
1.176500E-7	3.479456E-2
1.177000E-7	3.475687E-2
1.177500E-7	3.470548E-2
1.178000E-7	3.470205E-2
1.178500E-7	3.475344E-2
1.179000E-7	3.482882E-2
1.179500E-7	3.490762E-2
1.180000E-7	3.495558E-2
1.180500E-7	3.498299E-2
1.181000E-7	3.503780E-2
1.181500E-7	3.511318E-2
1.182000E-7	3.518512E-2
1.182500E-7	3.523651E-2
1.183000E-7	3.527762E-2
1.183500E-7	3.529818E-2
1.184000E-7	3.530161E-2
1.184500E-7	3.530503E-2
1.185000E-7	3.532901E-2
1.185500E-7	3.533929E-2
1.186000E-7	3.529818E-2
1.186500E-7	3.523309E-2
1.187000E-7	3.521596E-2
1.187500E-7	3.520910E-2
1.188000E-7	3.514401E-2
1.188500E-7	3.507206E-2
1.189000E-7	3.503780E-2
1.189500E-7	3.500012E-2
1.190000E-7	3.496586E-2
1.190500E-7	3.496243E-2
1.191000E-7	3.496243E-2
1.191500E-7	3.496928E-2
1.192000E-7	3.500354E-2
1.192500E-7	3.503438E-2
1.193000E-7	3.503438E-2
1.193500E-7	3.502753E-2
1.194000E-7	3.502067E-2
1.194500E-7	3.500012E-2
1.195000E-7	3.497271E-2
1.195500E-7	3.493502E-2
1.196000E-7	3.487678E-2
1.196500E-7	3.481169E-2
1.197000E-7	3.475344E-2
1.197500E-7	3.469178E-2
1.198000E-7	3.462668E-2
1.198500E-7	3.458214E-2
1.199000E-7	3.457187E-2
1.199500E-7	3.455474E-2
1.200000E-7	3.449992E-2
1.200500E-7	3.444853E-2
1.201000E-7	3.443483E-2
1.201500E-7	3.442112E-2
1.202000E-7	3.440399E-2
1.202500E-7	3.439371E-2
1.203000E-7	3.436973E-2
1.203500E-7	3.433547E-2
1.204000E-7	3.433205E-2
1.204500E-7	3.435260E-2
1.205000E-7	3.435603E-2
1.205500E-7	3.436288E-2
1.206000E-7	3.434232E-2
1.206500E-7	3.428751E-2
1.207000E-7	3.423954E-2
1.207500E-7	3.419843E-2
1.208000E-7	3.409908E-2
1.208500E-7	3.400315E-2
1.209000E-7	3.395176E-2
1.209500E-7	3.390379E-2
1.210000E-7	3.382500E-2
1.210500E-7	3.377703E-2
1.211000E-7	3.379074E-2
1.211500E-7	3.382842E-2
1.212000E-7	3.390379E-2
1.212500E-7	3.399630E-2
1.213000E-7	3.407167E-2
1.213500E-7	3.416417E-2
1.214000E-7	3.425325E-2
1.214500E-7	3.427723E-2
1.215000E-7	3.427380E-2
1.215500E-7	3.427723E-2
1.216000E-7	3.424297E-2
1.216500E-7	3.416417E-2
1.217000E-7	3.406824E-2
1.217500E-7	3.394833E-2
1.218000E-7	3.381129E-2
1.218500E-7	3.370851E-2
1.219000E-7	3.361944E-2
1.219500E-7	3.353379E-2
1.220000E-7	3.348240E-2
1.220500E-7	3.348582E-2
1.221000E-7	3.353379E-2
1.221500E-7	3.361944E-2
1.222000E-7	3.373935E-2
1.222500E-7	3.389009E-2
1.223000E-7	3.404083E-2
1.223500E-7	3.419158E-2
1.224000E-7	3.434918E-2
1.224500E-7	3.447936E-2
1.225000E-7	3.455816E-2
1.225500E-7	3.460613E-2
1.226000E-7	3.459927E-2
1.226500E-7	3.455131E-2
1.227000E-7	3.451020E-2
1.227500E-7	3.444510E-2
1.228000E-7	3.432862E-2
1.228500E-7	3.423612E-2
1.229000E-7	3.419158E-2
1.229500E-7	3.414704E-2
1.230000E-7	3.411621E-2
1.230500E-7	3.410935E-2
1.231000E-7	3.410250E-2
1.231500E-7	3.409565E-2
1.232000E-7	3.409565E-2
1.232500E-7	3.410250E-2
1.233000E-7	3.410593E-2
1.233500E-7	3.408195E-2
1.234000E-7	3.401343E-2
1.234500E-7	3.391750E-2
1.235000E-7	3.382157E-2
1.235500E-7	3.371879E-2
1.236000E-7	3.356805E-2
1.236500E-7	3.342415E-2
1.237000E-7	3.334535E-2
1.237500E-7	3.328026E-2
1.238000E-7	3.321174E-2
1.238500E-7	3.321174E-2
1.239000E-7	3.328369E-2
1.239500E-7	3.335906E-2
1.240000E-7	3.343443E-2
1.240500E-7	3.354749E-2
1.241000E-7	3.367768E-2
1.241500E-7	3.381129E-2
1.242000E-7	3.392435E-2
1.242500E-7	3.397917E-2
1.243000E-7	3.397917E-2
1.243500E-7	3.395518E-2
1.244000E-7	3.390379E-2
1.244500E-7	3.380444E-2
1.245000E-7	3.367425E-2
1.245500E-7	3.352693E-2
1.246000E-7	3.336248E-2
1.246500E-7	3.322544E-2
1.247000E-7	3.311581E-2
1.247500E-7	3.302331E-2
1.248000E-7	3.294794E-2
1.248500E-7	3.288284E-2
1.249000E-7	3.285201E-2
1.249500E-7	3.286571E-2
1.250000E-7	3.288627E-2
1.250500E-7	3.291368E-2
1.251000E-7	3.296849E-2
1.251500E-7	3.302674E-2
1.252000E-7	3.308155E-2
1.252500E-7	3.312266E-2
1.253000E-7	3.317405E-2
1.253500E-7	3.324257E-2
1.254000E-7	3.331109E-2
1.254500E-7	3.333850E-2
1.255000E-7	3.337619E-2
1.255500E-7	3.346869E-2
1.256000E-7	3.354749E-2
1.256500E-7	3.358175E-2
1.257000E-7	3.362286E-2
1.257500E-7	3.366397E-2
1.258000E-7	3.365370E-2
1.258500E-7	3.360916E-2
1.259000E-7	3.355434E-2
1.259500E-7	3.350295E-2
1.260000E-7	3.345156E-2
1.260500E-7	3.338647E-2
1.261000E-7	3.332480E-2
1.261500E-7	3.331795E-2
1.262000E-7	3.335563E-2
1.262500E-7	3.336591E-2
1.263000E-7	3.338647E-2
1.263500E-7	3.346526E-2
1.264000E-7	3.356805E-2
1.264500E-7	3.365712E-2
1.265000E-7	3.375990E-2
1.265500E-7	3.383527E-2
1.266000E-7	3.385583E-2
1.266500E-7	3.385583E-2
1.267000E-7	3.384213E-2
1.267500E-7	3.376333E-2
1.268000E-7	3.362629E-2
1.268500E-7	3.348240E-2
1.269000E-7	3.334193E-2
1.269500E-7	3.318776E-2
1.270000E-7	3.302331E-2
1.270500E-7	3.287599E-2
1.271000E-7	3.279034E-2
1.271500E-7	3.275265E-2
1.272000E-7	3.275265E-2
1.272500E-7	3.279377E-2
1.273000E-7	3.288627E-2
1.273500E-7	3.299933E-2
1.274000E-7	3.311239E-2
1.274500E-7	3.323230E-2
1.275000E-7	3.335221E-2
1.275500E-7	3.342415E-2
1.276000E-7	3.343786E-2
1.276500E-7	3.342758E-2
1.277000E-7	3.337961E-2
1.277500E-7	3.325628E-2
1.278000E-7	3.308840E-2
1.278500E-7	3.291025E-2
1.279000E-7	3.272867E-2
1.279500E-7	3.252311E-2
1.280000E-7	3.234839E-2
1.280500E-7	3.226959E-2
1.281000E-7	3.222162E-2
1.281500E-7	3.219422E-2
1.282000E-7	3.224903E-2
1.282500E-7	3.237579E-2
1.283000E-7	3.251283E-2
1.283500E-7	3.264302E-2
1.284000E-7	3.276978E-2
1.284500E-7	3.288627E-2
1.285000E-7	3.300618E-2
1.285500E-7	3.308840E-2
1.286000E-7	3.307127E-2
1.286500E-7	3.301303E-2
1.287000E-7	3.297877E-2
1.287500E-7	3.290683E-2
1.288000E-7	3.277664E-2
1.288500E-7	3.268413E-2
1.289000E-7	3.262589E-2
1.289500E-7	3.253339E-2
1.290000E-7	3.247172E-2
1.290500E-7	3.247172E-2
1.291000E-7	3.246487E-2
1.291500E-7	3.247515E-2
1.292000E-7	3.257108E-2
1.292500E-7	3.270126E-2
1.293000E-7	3.279719E-2
1.293500E-7	3.287257E-2
1.294000E-7	3.294794E-2
1.294500E-7	3.299590E-2
1.295000E-7	3.301988E-2
1.295500E-7	3.303359E-2
1.296000E-7	3.301303E-2
1.296500E-7	3.295822E-2
1.297000E-7	3.292053E-2
1.297500E-7	3.286571E-2
1.298000E-7	3.273552E-2
1.298500E-7	3.258135E-2
1.299000E-7	3.245459E-2
1.299500E-7	3.232098E-2
1.300000E-7	3.217366E-2
1.300500E-7	3.205375E-2
1.301000E-7	3.195439E-2
1.301500E-7	3.187902E-2
1.302000E-7	3.183448E-2
1.302500E-7	3.176596E-2
1.303000E-7	3.168374E-2
1.303500E-7	3.165976E-2
1.304000E-7	3.165976E-2
1.304500E-7	3.164605E-2
1.305000E-7	3.168031E-2
1.305500E-7	3.173856E-2
1.306000E-7	3.176939E-2
1.306500E-7	3.182078E-2
1.307000E-7	3.193384E-2
1.307500E-7	3.203662E-2
1.308000E-7	3.212570E-2
1.308500E-7	3.222848E-2
1.309000E-7	3.231413E-2
1.309500E-7	3.236894E-2
1.310000E-7	3.240663E-2
1.310500E-7	3.244089E-2
1.311000E-7	3.245459E-2
1.311500E-7	3.242718E-2
1.312000E-7	3.236894E-2
1.312500E-7	3.232440E-2
1.313000E-7	3.229014E-2
1.313500E-7	3.222848E-2
1.314000E-7	3.214283E-2
1.314500E-7	3.209143E-2
1.315000E-7	3.206060E-2
1.315500E-7	3.201606E-2
1.316000E-7	3.199893E-2
1.316500E-7	3.203662E-2
1.317000E-7	3.208116E-2
1.317500E-7	3.213255E-2
1.318000E-7	3.221820E-2
1.318500E-7	3.230042E-2
1.319000E-7	3.235524E-2
1.319500E-7	3.242718E-2
1.320000E-7	3.252654E-2
1.320500E-7	3.261561E-2
1.321000E-7	3.267728E-2
1.321500E-7	3.270812E-2
1.322000E-7	3.272525E-2
1.322500E-7	3.274238E-2
1.323000E-7	3.272867E-2
1.323500E-7	3.268071E-2
1.324000E-7	3.264302E-2
1.324500E-7	3.262589E-2
1.325000E-7	3.259848E-2
1.325500E-7	3.252654E-2
1.326000E-7	3.243746E-2
1.326500E-7	3.238265E-2
1.327000E-7	3.233126E-2
1.327500E-7	3.223533E-2
1.328000E-7	3.215996E-2
1.328500E-7	3.212570E-2
1.329000E-7	3.208458E-2
1.329500E-7	3.204347E-2
1.330000E-7	3.203319E-2
1.330500E-7	3.201264E-2
1.331000E-7	3.198180E-2
1.331500E-7	3.200236E-2
1.332000E-7	3.206403E-2
1.332500E-7	3.208458E-2
1.333000E-7	3.208116E-2
1.333500E-7	3.208458E-2
1.334000E-7	3.209829E-2
1.334500E-7	3.210514E-2
1.335000E-7	3.212570E-2
1.335500E-7	3.215996E-2
1.336000E-7	3.222162E-2
1.336500E-7	3.228329E-2
1.337000E-7	3.234839E-2
1.337500E-7	3.243061E-2
1.338000E-7	3.252654E-2
1.338500E-7	3.260876E-2
1.339000E-7	3.268413E-2
1.339500E-7	3.273210E-2
1.340000E-7	3.272525E-2
1.340500E-7	3.268071E-2
1.341000E-7	3.264645E-2
1.341500E-7	3.255737E-2
1.342000E-7	3.240320E-2
1.342500E-7	3.227644E-2
1.343000E-7	3.214625E-2
1.343500E-7	3.197152E-2
1.344000E-7	3.181735E-2
1.344500E-7	3.171115E-2
1.345000E-7	3.161179E-2
1.345500E-7	3.154327E-2
1.346000E-7	3.155355E-2
1.346500E-7	3.160152E-2
1.347000E-7	3.164263E-2
1.347500E-7	3.169402E-2
1.348000E-7	3.173170E-2
1.348500E-7	3.177282E-2
1.349000E-7	3.186189E-2
1.349500E-7	3.194412E-2
1.350000E-7	3.200578E-2
1.350500E-7	3.208116E-2
1.351000E-7	3.214283E-2
1.351500E-7	3.217709E-2
1.352000E-7	3.223533E-2
1.352500E-7	3.231755E-2
1.353000E-7	3.236894E-2
1.353500E-7	3.240320E-2
1.354000E-7	3.246144E-2
1.354500E-7	3.250256E-2
1.355000E-7	3.251283E-2
1.355500E-7	3.252311E-2
1.356000E-7	3.250598E-2
1.356500E-7	3.246144E-2
1.357000E-7	3.243061E-2
1.357500E-7	3.238607E-2
1.358000E-7	3.231755E-2
1.358500E-7	3.229700E-2
1.359000E-7	3.229357E-2
1.359500E-7	3.225588E-2
1.360000E-7	3.219764E-2
1.360500E-7	3.215310E-2
1.361000E-7	3.214283E-2
1.361500E-7	3.215653E-2
1.362000E-7	3.214625E-2
1.362500E-7	3.211542E-2
1.363000E-7	3.205717E-2
1.363500E-7	3.200578E-2
1.364000E-7	3.195782E-2
1.364500E-7	3.190986E-2
1.365000E-7	3.185847E-2
1.365500E-7	3.185847E-2
1.366000E-7	3.190986E-2
1.366500E-7	3.195439E-2
1.367000E-7	3.198865E-2
1.367500E-7	3.206403E-2
1.368000E-7	3.215310E-2
1.368500E-7	3.223875E-2
1.369000E-7	3.233811E-2
1.369500E-7	3.240663E-2
1.370000E-7	3.242376E-2
1.370500E-7	3.244431E-2
1.371000E-7	3.244774E-2
1.371500E-7	3.239292E-2
1.372000E-7	3.231070E-2
1.372500E-7	3.224561E-2
1.373000E-7	3.217023E-2
1.373500E-7	3.209143E-2
1.374000E-7	3.202634E-2
1.374500E-7	3.194754E-2
1.375000E-7	3.188930E-2
1.375500E-7	3.186189E-2
1.376000E-7	3.183106E-2
1.376500E-7	3.177282E-2
1.377000E-7	3.172828E-2
1.377500E-7	3.168374E-2
1.378000E-7	3.161522E-2
1.378500E-7	3.154327E-2
1.379000E-7	3.150901E-2
1.379500E-7	3.150216E-2
1.380000E-7	3.150216E-2
1.380500E-7	3.152272E-2
1.381000E-7	3.155013E-2
1.381500E-7	3.160152E-2
1.382000E-7	3.170772E-2
1.382500E-7	3.181393E-2
1.383000E-7	3.185504E-2
1.383500E-7	3.189273E-2
1.384000E-7	3.193726E-2
1.384500E-7	3.193041E-2
1.385000E-7	3.190300E-2
1.385500E-7	3.188587E-2
1.386000E-7	3.184476E-2
1.386500E-7	3.175911E-2
1.387000E-7	3.170087E-2
1.387500E-7	3.167004E-2
1.388000E-7	3.160837E-2
1.388500E-7	3.155355E-2
1.389000E-7	3.152957E-2
1.389500E-7	3.148503E-2
1.390000E-7	3.143707E-2
1.390500E-7	3.138568E-2
1.391000E-7	3.130003E-2
1.391500E-7	3.121095E-2
1.392000E-7	3.115613E-2
1.392500E-7	3.111160E-2
1.393000E-7	3.108419E-2
1.393500E-7	3.107391E-2
1.394000E-7	3.108419E-2
1.394500E-7	3.113558E-2
1.395000E-7	3.121438E-2
1.395500E-7	3.129660E-2
1.396000E-7	3.137882E-2
1.396500E-7	3.145077E-2
1.397000E-7	3.148503E-2
1.397500E-7	3.149874E-2
1.398000E-7	3.147475E-2
1.398500E-7	3.138225E-2
1.399000E-7	3.124178E-2
1.399500E-7	3.111160E-2
1.400000E-7	3.096770E-2
1.400500E-7	3.079640E-2
1.401000E-7	3.064223E-2
1.401500E-7	3.050519E-2
1.402000E-7	3.036815E-2
1.402500E-7	3.029621E-2
1.403000E-7	3.028935E-2
1.403500E-7	3.028935E-2
1.404000E-7	3.029278E-2
1.404500E-7	3.034074E-2
1.405000E-7	3.040584E-2
1.405500E-7	3.050862E-2
1.406000E-7	3.066279E-2
1.406500E-7	3.079640E-2
1.407000E-7	3.087863E-2
1.407500E-7	3.099169E-2
1.408000E-7	3.111160E-2
1.408500E-7	3.117669E-2
1.409000E-7	3.123493E-2
1.409500E-7	3.129317E-2
1.410000E-7	3.127604E-2
1.410500E-7	3.122808E-2
1.411000E-7	3.121438E-2
1.411500E-7	3.117326E-2
1.412000E-7	3.106363E-2
1.412500E-7	3.096428E-2
1.413000E-7	3.088891E-2
1.413500E-7	3.080668E-2
1.414000E-7	3.071075E-2
1.414500E-7	3.061825E-2
1.415000E-7	3.057029E-2
1.415500E-7	3.056001E-2
1.416000E-7	3.057371E-2
1.416500E-7	3.060455E-2
1.417000E-7	3.064908E-2
1.417500E-7	3.069362E-2
1.418000E-7	3.072446E-2
1.418500E-7	3.075187E-2
1.419000E-7	3.078613E-2
1.419500E-7	3.081353E-2
1.420000E-7	3.083752E-2
1.420500E-7	3.087863E-2
1.421000E-7	3.092659E-2
1.421500E-7	3.094372E-2
1.422000E-7	3.094715E-2
1.422500E-7	3.096085E-2
1.423000E-7	3.097113E-2
1.423500E-7	3.095057E-2
1.424000E-7	3.093687E-2
1.424500E-7	3.095057E-2
1.425000E-7	3.096085E-2
1.425500E-7	3.094372E-2
1.426000E-7	3.091289E-2
1.426500E-7	3.088548E-2
1.427000E-7	3.087520E-2
1.427500E-7	3.085465E-2
1.428000E-7	3.080326E-2
1.428500E-7	3.073816E-2
1.429000E-7	3.072103E-2
1.429500E-7	3.076214E-2
1.430000E-7	3.078613E-2
1.430500E-7	3.078270E-2
1.431000E-7	3.081696E-2
1.431500E-7	3.085122E-2
1.432000E-7	3.082724E-2
1.432500E-7	3.085122E-2
1.433000E-7	3.094372E-2
1.433500E-7	3.096428E-2
1.434000E-7	3.093687E-2
1.434500E-7	3.097113E-2
1.435000E-7	3.099854E-2
1.435500E-7	3.094372E-2
1.436000E-7	3.088891E-2
1.436500E-7	3.086492E-2
1.437000E-7	3.082039E-2
1.437500E-7	3.078955E-2
1.438000E-7	3.077927E-2
1.438500E-7	3.076214E-2
1.439000E-7	3.076214E-2
1.439500E-7	3.081696E-2
1.440000E-7	3.088548E-2
1.440500E-7	3.093344E-2
1.441000E-7	3.098141E-2
1.441500E-7	3.103622E-2
1.442000E-7	3.107734E-2
1.442500E-7	3.112530E-2
1.443000E-7	3.114586E-2
1.443500E-7	3.112530E-2
1.444000E-7	3.109104E-2
1.444500E-7	3.104308E-2
1.445000E-7	3.096770E-2
1.445500E-7	3.089918E-2
1.446000E-7	3.084437E-2
1.446500E-7	3.075529E-2
1.447000E-7	3.066964E-2
1.447500E-7	3.064908E-2
1.448000E-7	3.064908E-2
1.448500E-7	3.061140E-2
1.449000E-7	3.059769E-2
1.449500E-7	3.060455E-2
1.450000E-7	3.056001E-2
1.450500E-7	3.048464E-2
1.451000E-7	3.045038E-2
1.451500E-7	3.042982E-2
1.452000E-7	3.038528E-2
1.452500E-7	3.033047E-2
1.453000E-7	3.027908E-2
1.453500E-7	3.025167E-2
1.454000E-7	3.024139E-2
1.454500E-7	3.023796E-2
1.455000E-7	3.022769E-2
1.455500E-7	3.020370E-2
1.456000E-7	3.020713E-2
1.456500E-7	3.023111E-2
1.457000E-7	3.023111E-2
1.457500E-7	3.019000E-2
1.458000E-7	3.016259E-2
1.458500E-7	3.017972E-2
1.459000E-7	3.017972E-2
1.459500E-7	3.014889E-2
1.460000E-7	3.017972E-2
1.460500E-7	3.024824E-2
1.461000E-7	3.027565E-2
1.461500E-7	3.031334E-2
1.462000E-7	3.039899E-2
1.462500E-7	3.043325E-2
1.463000E-7	3.042639E-2
1.463500E-7	3.045038E-2
1.464000E-7	3.047093E-2
1.464500E-7	3.044352E-2
1.465000E-7	3.042639E-2
1.465500E-7	3.041269E-2
1.466000E-7	3.034417E-2
1.466500E-7	3.026880E-2
1.467000E-7	3.024824E-2
1.467500E-7	3.024824E-2
1.468000E-7	3.025509E-2
1.468500E-7	3.031334E-2
1.469000E-7	3.036815E-2
1.469500E-7	3.038871E-2
1.470000E-7	3.039213E-2
1.470500E-7	3.039899E-2
1.471000E-7	3.040241E-2
1.471500E-7	3.039556E-2
1.472000E-7	3.036130E-2
1.472500E-7	3.032361E-2
1.473000E-7	3.032019E-2
1.473500E-7	3.029963E-2
1.474000E-7	3.026880E-2
1.474500E-7	3.027908E-2
1.475000E-7	3.031334E-2
1.475500E-7	3.031676E-2
1.476000E-7	3.037158E-2
1.476500E-7	3.045723E-2
1.477000E-7	3.049149E-2
1.477500E-7	3.053603E-2
1.478000E-7	3.062168E-2
1.478500E-7	3.066621E-2
1.479000E-7	3.067307E-2
1.479500E-7	3.066964E-2
1.480000E-7	3.065251E-2
1.480500E-7	3.061825E-2
1.481000E-7	3.057029E-2
1.481500E-7	3.047093E-2
1.482000E-7	3.035102E-2
1.482500E-7	3.024139E-2
1.483000E-7	3.010092E-2
1.483500E-7	2.992620E-2
1.484000E-7	2.979258E-2
1.484500E-7	2.970693E-2
1.485000E-7	2.959730E-2
1.485500E-7	2.949795E-2
1.486000E-7	2.945341E-2
1.486500E-7	2.941915E-2
1.487000E-7	2.941572E-2
1.487500E-7	2.946711E-2
1.488000E-7	2.951508E-2
1.488500E-7	2.956647E-2
1.489000E-7	2.965897E-2
1.489500E-7	2.972749E-2
1.490000E-7	2.974119E-2
1.490500E-7	2.975832E-2
1.491000E-7	2.976860E-2
1.491500E-7	2.972064E-2
1.492000E-7	2.963499E-2
1.492500E-7	2.957674E-2
1.493000E-7	2.952535E-2
1.493500E-7	2.944998E-2
1.494000E-7	2.938831E-2
1.494500E-7	2.933007E-2
1.495000E-7	2.926155E-2
1.495500E-7	2.920331E-2
1.496000E-7	2.917247E-2
1.496500E-7	2.914164E-2
1.497000E-7	2.911423E-2
1.497500E-7	2.912451E-2
1.498000E-7	2.916562E-2
1.498500E-7	2.917933E-2
1.499000E-7	2.921016E-2
1.499500E-7	2.932322E-2
1.500000E-7	2.944656E-2
1.500500E-7	2.951165E-2
1.501000E-7	2.962128E-2
1.501500E-7	2.978573E-2
1.502000E-7	2.990221E-2
1.502500E-7	2.998444E-2
1.503000E-7	3.010435E-2
1.503500E-7	3.021056E-2
1.504000E-7	3.023454E-2
1.504500E-7	3.024824E-2
1.505000E-7	3.025852E-2
1.505500E-7	3.019000E-2
1.506000E-7	3.010092E-2
1.506500E-7	3.006324E-2
1.507000E-7	3.001870E-2
1.507500E-7	2.991249E-2
1.508000E-7	2.982684E-2
1.508500E-7	2.979258E-2
1.509000E-7	2.976517E-2
1.509500E-7	2.974119E-2
1.510000E-7	2.974119E-2
1.510500E-7	2.972406E-2
1.511000E-7	2.970351E-2
1.511500E-7	2.973434E-2
1.512000E-7	2.978230E-2
1.512500E-7	2.976175E-2
1.513000E-7	2.972064E-2
1.513500E-7	2.971378E-2
1.514000E-7	2.968295E-2
1.514500E-7	2.960073E-2
1.515000E-7	2.948082E-2
1.515500E-7	2.935748E-2
1.516000E-7	2.924442E-2
1.516500E-7	2.916562E-2
1.517000E-7	2.910395E-2
1.517500E-7	2.904571E-2
1.518000E-7	2.901145E-2
1.518500E-7	2.898404E-2
1.519000E-7	2.895321E-2
1.519500E-7	2.895664E-2
1.520000E-7	2.897034E-2
1.520500E-7	2.894636E-2
1.521000E-7	2.891895E-2
1.521500E-7	2.892238E-2
1.522000E-7	2.890525E-2
1.522500E-7	2.889497E-2
1.523000E-7	2.891552E-2
1.523500E-7	2.893265E-2
1.524000E-7	2.893608E-2
1.524500E-7	2.896349E-2
1.525000E-7	2.900460E-2
1.525500E-7	2.904914E-2
1.526000E-7	2.907655E-2
1.526500E-7	2.909368E-2
1.527000E-7	2.912794E-2
1.527500E-7	2.913136E-2
1.528000E-7	2.906284E-2
1.528500E-7	2.901830E-2
1.529000E-7	2.902858E-2
1.529500E-7	2.900803E-2
1.530000E-7	2.894978E-2
1.530500E-7	2.896006E-2
1.531000E-7	2.904229E-2
1.531500E-7	2.913479E-2
1.532000E-7	2.921701E-2
1.532500E-7	2.931979E-2
1.533000E-7	2.943285E-2
1.533500E-7	2.953906E-2
1.534000E-7	2.961786E-2
1.534500E-7	2.966582E-2
1.535000E-7	2.966925E-2
1.535500E-7	2.962471E-2
1.536000E-7	2.955276E-2
1.536500E-7	2.948082E-2
1.537000E-7	2.938489E-2
1.537500E-7	2.928553E-2
1.538000E-7	2.920673E-2
1.538500E-7	2.914849E-2
1.539000E-7	2.909710E-2
1.539500E-7	2.905599E-2
1.540000E-7	2.901488E-2
1.540500E-7	2.900117E-2
1.541000E-7	2.902858E-2
1.541500E-7	2.905942E-2
1.542000E-7	2.906627E-2
1.542500E-7	2.908340E-2
1.543000E-7	2.912451E-2
1.543500E-7	2.917590E-2
1.544000E-7	2.922729E-2
1.544500E-7	2.927868E-2
1.545000E-7	2.931294E-2
1.545500E-7	2.936776E-2
1.546000E-7	2.942943E-2
1.546500E-7	2.949452E-2
1.547000E-7	2.957332E-2
1.547500E-7	2.965554E-2
1.548000E-7	2.968638E-2
1.548500E-7	2.966582E-2
1.549000E-7	2.966239E-2
1.549500E-7	2.963499E-2
1.550000E-7	2.954591E-2
1.550500E-7	2.946369E-2
1.551000E-7	2.943628E-2
1.551500E-7	2.938831E-2
1.552000E-7	2.931637E-2
1.552500E-7	2.927183E-2
1.553000E-7	2.922729E-2
1.553500E-7	2.916562E-2
1.554000E-7	2.913479E-2
1.554500E-7	2.912108E-2
1.555000E-7	2.910395E-2
1.555500E-7	2.910053E-2
1.556000E-7	2.906969E-2
1.556500E-7	2.900460E-2
1.557000E-7	2.896349E-2
1.557500E-7	2.892923E-2
1.558000E-7	2.885728E-2
1.558500E-7	2.877506E-2
1.559000E-7	2.873052E-2
1.559500E-7	2.869626E-2
1.560000E-7	2.864829E-2
1.560500E-7	2.861061E-2
1.561000E-7	2.860376E-2
1.561500E-7	2.860376E-2
1.562000E-7	2.860033E-2
1.562500E-7	2.862774E-2
1.563000E-7	2.868941E-2
1.563500E-7	2.874422E-2
1.564000E-7	2.877163E-2
1.564500E-7	2.880247E-2
1.565000E-7	2.885728E-2
1.565500E-7	2.890182E-2
1.566000E-7	2.888812E-2
1.566500E-7	2.884700E-2
1.567000E-7	2.878876E-2
1.567500E-7	2.870654E-2
1.568000E-7	2.860718E-2
1.568500E-7	2.849070E-2
1.569000E-7	2.834681E-2
1.569500E-7	2.819949E-2
1.570000E-7	2.810356E-2
1.570500E-7	2.804189E-2
1.571000E-7	2.796995E-2
1.571500E-7	2.793568E-2
1.572000E-7	2.795281E-2
1.572500E-7	2.799735E-2
1.573000E-7	2.807615E-2
1.573500E-7	2.818236E-2
1.574000E-7	2.829884E-2
1.574500E-7	2.841875E-2
1.575000E-7	2.854551E-2
1.575500E-7	2.865172E-2
1.576000E-7	2.874765E-2
1.576500E-7	2.882302E-2
1.577000E-7	2.887099E-2
1.577500E-7	2.889497E-2
1.578000E-7	2.887441E-2
1.578500E-7	2.884015E-2
1.579000E-7	2.883330E-2
1.579500E-7	2.880247E-2
1.580000E-7	2.872709E-2
1.580500E-7	2.869626E-2
1.581000E-7	2.869283E-2
1.581500E-7	2.862089E-2
1.582000E-7	2.852496E-2
1.582500E-7	2.847014E-2
1.583000E-7	2.841190E-2
1.583500E-7	2.832968E-2
1.584000E-7	2.827143E-2
1.584500E-7	2.822690E-2
1.585000E-7	2.815152E-2
1.585500E-7	2.808986E-2
1.586000E-7	2.806245E-2
1.586500E-7	2.804189E-2
1.587000E-7	2.802476E-2
1.587500E-7	2.802819E-2
1.588000E-7	2.803847E-2
1.588500E-7	2.803161E-2
1.589000E-7	2.803847E-2
1.589500E-7	2.806930E-2
1.590000E-7	2.810356E-2
1.590500E-7	2.814125E-2
1.591000E-7	2.818236E-2
1.591500E-7	2.823375E-2
1.592000E-7	2.828171E-2
1.592500E-7	2.833995E-2
1.593000E-7	2.841875E-2
1.593500E-7	2.851125E-2
1.594000E-7	2.857292E-2
1.594500E-7	2.860376E-2
1.595000E-7	2.865857E-2
1.595500E-7	2.872024E-2
1.596000E-7	2.873052E-2
1.596500E-7	2.872709E-2
1.597000E-7	2.873052E-2
1.597500E-7	2.869283E-2
1.598000E-7	2.862774E-2
1.598500E-7	2.856264E-2
1.599000E-7	2.845644E-2
1.599500E-7	2.835708E-2
1.600000E-7	2.828171E-2
1.600500E-7	2.820291E-2
1.601000E-7	2.814467E-2
1.601500E-7	2.813782E-2
1.602000E-7	2.813782E-2
1.602500E-7	2.813097E-2
1.603000E-7	2.816523E-2
1.603500E-7	2.821662E-2
1.604000E-7	2.822004E-2
1.604500E-7	2.820977E-2
1.605000E-7	2.821662E-2
1.605500E-7	2.819264E-2
1.606000E-7	2.813782E-2
1.606500E-7	2.807958E-2
1.607000E-7	2.799050E-2
1.607500E-7	2.788429E-2
1.608000E-7	2.780207E-2
1.608500E-7	2.775068E-2
1.609000E-7	2.773355E-2
1.609500E-7	2.772670E-2
1.610000E-7	2.775411E-2
1.610500E-7	2.785003E-2
1.611000E-7	2.796995E-2
1.611500E-7	2.805217E-2
1.612000E-7	2.813439E-2
1.612500E-7	2.822690E-2
1.613000E-7	2.827486E-2
1.613500E-7	2.827143E-2
1.614000E-7	2.824403E-2
1.614500E-7	2.817208E-2
1.615000E-7	2.805902E-2
1.615500E-7	2.795281E-2
1.616000E-7	2.785003E-2
1.616500E-7	2.774040E-2
1.617000E-7	2.763762E-2
1.617500E-7	2.755882E-2
1.618000E-7	2.750401E-2
1.618500E-7	2.748345E-2
1.619000E-7	2.750401E-2
1.619500E-7	2.757938E-2
1.620000E-7	2.767188E-2
1.620500E-7	2.775068E-2
1.621000E-7	2.785689E-2
1.621500E-7	2.797680E-2
1.622000E-7	2.807958E-2
1.622500E-7	2.816865E-2
1.623000E-7	2.824745E-2
1.623500E-7	2.825430E-2
1.624000E-7	2.819264E-2
1.624500E-7	2.812754E-2
1.625000E-7	2.804189E-2
1.625500E-7	2.790828E-2
1.626000E-7	2.779522E-2
1.626500E-7	2.773698E-2
1.627000E-7	2.766503E-2
1.627500E-7	2.758281E-2
1.628000E-7	2.754855E-2
1.628500E-7	2.754169E-2
1.629000E-7	2.753827E-2
1.629500E-7	2.756568E-2
1.630000E-7	2.760679E-2
1.630500E-7	2.763762E-2
1.631000E-7	2.768901E-2
1.631500E-7	2.777124E-2
1.632000E-7	2.782948E-2
1.632500E-7	2.785003E-2
1.633000E-7	2.788429E-2
1.633500E-7	2.793911E-2
1.634000E-7	2.795967E-2
1.634500E-7	2.794596E-2
1.635000E-7	2.794939E-2
1.635500E-7	2.799393E-2
1.636000E-7	2.802819E-2
1.636500E-7	2.803161E-2
1.637000E-7	2.800078E-2
1.637500E-7	2.793568E-2
1.638000E-7	2.784661E-2
1.638500E-7	2.777466E-2
1.639000E-7	2.770614E-2
1.639500E-7	2.762734E-2
1.640000E-7	2.752799E-2
1.640500E-7	2.744919E-2
1.641000E-7	2.743549E-2
1.641500E-7	2.743549E-2
1.642000E-7	2.739438E-2
1.642500E-7	2.739095E-2
1.643000E-7	2.746290E-2
1.643500E-7	2.753142E-2
1.644000E-7	2.754169E-2
1.644500E-7	2.755540E-2
1.645000E-7	2.759994E-2
1.645500E-7	2.761707E-2
1.646000E-7	2.762392E-2
1.646500E-7	2.764105E-2
1.647000E-7	2.764447E-2
1.647500E-7	2.763420E-2
1.648000E-7	2.761707E-2
1.648500E-7	2.754855E-2
1.649000E-7	2.745604E-2
1.649500E-7	2.739438E-2
1.650000E-7	2.734641E-2
1.650500E-7	2.725733E-2
1.651000E-7	2.715113E-2
1.651500E-7	2.706548E-2
1.652000E-7	2.699353E-2
1.652500E-7	2.694214E-2
1.653000E-7	2.692501E-2
1.653500E-7	2.692844E-2
1.654000E-7	2.695585E-2
1.654500E-7	2.703464E-2
1.655000E-7	2.712029E-2
1.655500E-7	2.719567E-2
1.656000E-7	2.729160E-2
1.656500E-7	2.738067E-2
1.657000E-7	2.743206E-2
1.657500E-7	2.744577E-2
1.658000E-7	2.741836E-2
1.658500E-7	2.737725E-2
1.659000E-7	2.732928E-2
1.659500E-7	2.725048E-2
1.660000E-7	2.718539E-2
1.660500E-7	2.716141E-2
1.661000E-7	2.713057E-2
1.661500E-7	2.709974E-2
1.662000E-7	2.713057E-2
1.662500E-7	2.720252E-2
1.663000E-7	2.725733E-2
1.663500E-7	2.729845E-2
1.664000E-7	2.732928E-2
1.664500E-7	2.734641E-2
1.665000E-7	2.736697E-2
1.665500E-7	2.737382E-2
1.666000E-7	2.737039E-2
1.666500E-7	2.737039E-2
1.667000E-7	2.736012E-2
1.667500E-7	2.732243E-2
1.668000E-7	2.730530E-2
1.668500E-7	2.731215E-2
1.669000E-7	2.731558E-2
1.669500E-7	2.733271E-2
1.670000E-7	2.736012E-2
1.670500E-7	2.737039E-2
1.671000E-7	2.738410E-2
1.671500E-7	2.738410E-2
1.672000E-7	2.735326E-2
1.672500E-7	2.731215E-2
1.673000E-7	2.727447E-2
1.673500E-7	2.720937E-2
1.674000E-7	2.713057E-2
1.674500E-7	2.707233E-2
1.675000E-7	2.703807E-2
1.675500E-7	2.699011E-2
1.676000E-7	2.697640E-2
1.676500E-7	2.700038E-2
1.677000E-7	2.703464E-2
1.677500E-7	2.708603E-2
1.678000E-7	2.714428E-2
1.678500E-7	2.721280E-2
1.679000E-7	2.729845E-2
1.679500E-7	2.737039E-2
1.680000E-7	2.741836E-2
1.680500E-7	2.745262E-2
1.681000E-7	2.745604E-2
1.681500E-7	2.741151E-2
1.682000E-7	2.732928E-2
1.682500E-7	2.720937E-2
1.683000E-7	2.706548E-2
1.683500E-7	2.691131E-2
1.684000E-7	2.679140E-2
1.684500E-7	2.671260E-2
1.685000E-7	2.665093E-2
1.685500E-7	2.664065E-2
1.686000E-7	2.668177E-2
1.686500E-7	2.673658E-2
1.687000E-7	2.681881E-2
1.687500E-7	2.692159E-2
1.688000E-7	2.701409E-2
1.688500E-7	2.711344E-2
1.689000E-7	2.720252E-2
1.689500E-7	2.722993E-2
1.690000E-7	2.718881E-2
1.690500E-7	2.714428E-2
1.691000E-7	2.711002E-2
1.691500E-7	2.705863E-2
1.692000E-7	2.700038E-2
1.692500E-7	2.696955E-2
1.693000E-7	2.694557E-2
1.693500E-7	2.694899E-2
1.694000E-7	2.700038E-2
1.694500E-7	2.707233E-2
1.695000E-7	2.713057E-2
1.695500E-7	2.719909E-2
1.696000E-7	2.727104E-2
1.696500E-7	2.731558E-2
1.697000E-7	2.734299E-2
1.697500E-7	2.738410E-2
1.698000E-7	2.739780E-2
1.698500E-7	2.733956E-2
1.699000E-7	2.726419E-2
1.699500E-7	2.721280E-2
1.700000E-7	2.715798E-2
1.700500E-7	2.708261E-2
1.701000E-7	2.701409E-2
1.701500E-7	2.695242E-2
1.702000E-7	2.686334E-2
1.702500E-7	2.679482E-2
1.703000E-7	2.675029E-2
1.703500E-7	2.667834E-2
1.704000E-7	2.662695E-2
1.704500E-7	2.660982E-2
1.705000E-7	2.659612E-2
1.705500E-7	2.661667E-2
1.706000E-7	2.665436E-2
1.706500E-7	2.668862E-2
1.707000E-7	2.676056E-2
1.707500E-7	2.687705E-2
1.708000E-7	2.697983E-2
1.708500E-7	2.710659E-2
1.709000E-7	2.726419E-2
1.709500E-7	2.736354E-2
1.710000E-7	2.740808E-2
1.710500E-7	2.748345E-2
1.711000E-7	2.750058E-2
1.711500E-7	2.741151E-2
1.712000E-7	2.729160E-2
1.712500E-7	2.719909E-2
1.713000E-7	2.707918E-2
1.713500E-7	2.692501E-2
1.714000E-7	2.678112E-2
1.714500E-7	2.668519E-2
1.715000E-7	2.665778E-2
1.715500E-7	2.669547E-2
1.716000E-7	2.675029E-2
1.716500E-7	2.683251E-2
1.717000E-7	2.697298E-2
1.717500E-7	2.711002E-2
1.718000E-7	2.721965E-2
1.718500E-7	2.731900E-2
1.719000E-7	2.740123E-2
1.719500E-7	2.740808E-2
1.720000E-7	2.734641E-2
1.720500E-7	2.725391E-2
1.721000E-7	2.712715E-2
1.721500E-7	2.697983E-2
1.722000E-7	2.683936E-2
1.722500E-7	2.670232E-2
1.723000E-7	2.657899E-2
1.723500E-7	2.649333E-2
1.724000E-7	2.643509E-2
1.724500E-7	2.640426E-2
1.725000E-7	2.639398E-2
1.725500E-7	2.637000E-2
1.726000E-7	2.635287E-2
1.726500E-7	2.637000E-2
1.727000E-7	2.637342E-2
1.727500E-7	2.635972E-2
1.728000E-7	2.638713E-2
1.728500E-7	2.641454E-2
1.729000E-7	2.638713E-2
1.729500E-7	2.635972E-2
1.730000E-7	2.634602E-2
1.730500E-7	2.632546E-2
1.731000E-7	2.631518E-2
1.731500E-7	2.628777E-2
1.732000E-7	2.623296E-2
1.732500E-7	2.621583E-2
1.733000E-7	2.620212E-2
1.733500E-7	2.614388E-2
1.734000E-7	2.612675E-2
1.734500E-7	2.620555E-2
1.735000E-7	2.626722E-2
1.735500E-7	2.629120E-2
1.736000E-7	2.638713E-2
1.736500E-7	2.651389E-2
1.737000E-7	2.658241E-2
1.737500E-7	2.662352E-2
1.738000E-7	2.666464E-2
1.738500E-7	2.664408E-2
1.739000E-7	2.658584E-2
1.739500E-7	2.654815E-2
1.740000E-7	2.647620E-2
1.740500E-7	2.633916E-2
1.741000E-7	2.619870E-2
1.741500E-7	2.609592E-2
1.742000E-7	2.601712E-2
1.742500E-7	2.592804E-2
1.743000E-7	2.583897E-2
1.743500E-7	2.579785E-2
1.744000E-7	2.579785E-2
1.744500E-7	2.580128E-2
1.745000E-7	2.579100E-2
1.745500E-7	2.578072E-2
1.746000E-7	2.578415E-2
1.746500E-7	2.579785E-2
1.747000E-7	2.580471E-2
1.747500E-7	2.580128E-2
1.748000E-7	2.582184E-2
1.748500E-7	2.589378E-2
1.749000E-7	2.595888E-2
1.749500E-7	2.597943E-2
1.750000E-7	2.599999E-2
1.750500E-7	2.605481E-2
1.751000E-7	2.606508E-2
1.751500E-7	2.602397E-2
1.752000E-7	2.599656E-2
1.752500E-7	2.596230E-2
1.753000E-7	2.588693E-2
1.753500E-7	2.582184E-2
1.754000E-7	2.579100E-2
1.754500E-7	2.576017E-2
1.755000E-7	2.574646E-2
1.755500E-7	2.575332E-2
1.756000E-7	2.578072E-2
1.756500E-7	2.582869E-2
1.757000E-7	2.593147E-2
1.757500E-7	2.601027E-2
1.758000E-7	2.605138E-2
1.758500E-7	2.609592E-2
1.759000E-7	2.616444E-2
1.759500E-7	2.620555E-2
1.760000E-7	2.621583E-2
1.760500E-7	2.621583E-2
1.761000E-7	2.622953E-2
1.761500E-7	2.624666E-2
1.762000E-7	2.623638E-2
1.762500E-7	2.622268E-2
1.763000E-7	2.623296E-2
1.763500E-7	2.622611E-2
1.764000E-7	2.617472E-2
1.764500E-7	2.610620E-2
1.765000E-7	2.604110E-2
1.765500E-7	2.598971E-2
1.766000E-7	2.597943E-2
1.766500E-7	2.597258E-2
1.767000E-7	2.595203E-2
1.767500E-7	2.596230E-2
1.768000E-7	2.601712E-2
1.768500E-7	2.606851E-2
1.769000E-7	2.612675E-2
1.769500E-7	2.623638E-2
1.770000E-7	2.636657E-2
1.770500E-7	2.648306E-2
1.771000E-7	2.658584E-2
1.771500E-7	2.664065E-2
1.772000E-7	2.665436E-2
1.772500E-7	2.667834E-2
1.773000E-7	2.670917E-2
1.773500E-7	2.665778E-2
1.774000E-7	2.658926E-2
1.774500E-7	2.655843E-2
1.775000E-7	2.648648E-2
1.775500E-7	2.635972E-2
1.776000E-7	2.628092E-2
1.776500E-7	2.623981E-2
1.777000E-7	2.613360E-2
1.777500E-7	2.597601E-2
1.778000E-7	2.586980E-2
1.778500E-7	2.579443E-2
1.779000E-7	2.566767E-2
1.779500E-7	2.552377E-2
1.780000E-7	2.543470E-2
1.780500E-7	2.536960E-2
1.781000E-7	2.530108E-2
1.781500E-7	2.527710E-2
1.782000E-7	2.529766E-2
1.782500E-7	2.533534E-2
1.783000E-7	2.538673E-2
1.783500E-7	2.544498E-2
1.784000E-7	2.551692E-2
1.784500E-7	2.561970E-2
1.785000E-7	2.575332E-2
1.785500E-7	2.584582E-2
1.786000E-7	2.586295E-2
1.786500E-7	2.588008E-2
1.787000E-7	2.591777E-2
1.787500E-7	2.591777E-2
1.788000E-7	2.584239E-2
1.788500E-7	2.572248E-2
1.789000E-7	2.562655E-2
1.789500E-7	2.557174E-2
1.790000E-7	2.549637E-2
1.790500E-7	2.541072E-2
1.791000E-7	2.537646E-2
1.791500E-7	2.539359E-2
1.792000E-7	2.541414E-2
1.792500E-7	2.543812E-2
1.793000E-7	2.549637E-2
1.793500E-7	2.558544E-2
1.794000E-7	2.567109E-2
1.794500E-7	2.575674E-2
1.795000E-7	2.584924E-2
1.795500E-7	2.589721E-2
1.796000E-7	2.590749E-2
1.796500E-7	2.594175E-2
1.797000E-7	2.596230E-2
1.797500E-7	2.590406E-2
1.798000E-7	2.582526E-2
1.798500E-7	2.577045E-2
1.799000E-7	2.570535E-2
1.799500E-7	2.560600E-2
1.800000E-7	2.550664E-2
1.800500E-7	2.542785E-2
1.801000E-7	2.539016E-2
1.801500E-7	2.537303E-2
1.802000E-7	2.533877E-2
1.802500E-7	2.534220E-2
1.803000E-7	2.540044E-2
1.803500E-7	2.547238E-2
1.804000E-7	2.556146E-2
1.804500E-7	2.569165E-2
1.805000E-7	2.580471E-2
1.805500E-7	2.588693E-2
1.806000E-7	2.599656E-2
1.806500E-7	2.609934E-2
1.807000E-7	2.615416E-2
1.807500E-7	2.618842E-2
1.808000E-7	2.619185E-2
1.808500E-7	2.614388E-2
1.809000E-7	2.607879E-2
1.809500E-7	2.597943E-2
1.810000E-7	2.583554E-2
1.810500E-7	2.567109E-2
1.811000E-7	2.550322E-2
1.811500E-7	2.531479E-2
1.812000E-7	2.513321E-2
1.812500E-7	2.498246E-2
1.813000E-7	2.485228E-2
1.813500E-7	2.477348E-2
1.814000E-7	2.477348E-2
1.814500E-7	2.482487E-2
1.815000E-7	2.492080E-2
1.815500E-7	2.506126E-2
1.816000E-7	2.516404E-2
1.816500E-7	2.523256E-2
1.817000E-7	2.531479E-2
1.817500E-7	2.536960E-2
1.818000E-7	2.535590E-2
1.818500E-7	2.531821E-2
1.819000E-7	2.524627E-2
1.819500E-7	2.512293E-2
1.820000E-7	2.499274E-2
1.820500E-7	2.486941E-2
1.821000E-7	2.475635E-2
1.821500E-7	2.470153E-2
1.822000E-7	2.470838E-2
1.822500E-7	2.473237E-2
1.823000E-7	2.476663E-2
1.823500E-7	2.486598E-2
1.824000E-7	2.499959E-2
1.824500E-7	2.510923E-2
1.825000E-7	2.520858E-2
1.825500E-7	2.528053E-2
1.826000E-7	2.533877E-2
1.826500E-7	2.540729E-2
1.827000E-7	2.546211E-2
1.827500E-7	2.546553E-2
1.828000E-7	2.544840E-2
1.828500E-7	2.546896E-2
1.829000E-7	2.548951E-2
1.829500E-7	2.547581E-2
1.830000E-7	2.548609E-2
1.830500E-7	2.554090E-2
1.831000E-7	2.558544E-2
1.831500E-7	2.560600E-2
1.832000E-7	2.561285E-2
1.832500E-7	2.558887E-2
1.833000E-7	2.554090E-2
1.833500E-7	2.547581E-2
1.834000E-7	2.537646E-2
1.834500E-7	2.524627E-2
1.835000E-7	2.512636E-2
1.835500E-7	2.498932E-2
1.836000E-7	2.481802E-2
1.836500E-7	2.468098E-2
1.837000E-7	2.455421E-2
1.837500E-7	2.439662E-2
1.838000E-7	2.426643E-2
1.838500E-7	2.420133E-2
1.839000E-7	2.412254E-2
1.839500E-7	2.407457E-2
1.840000E-7	2.411226E-2
1.840500E-7	2.412939E-2
1.841000E-7	2.412939E-2
1.841500E-7	2.419791E-2
1.842000E-7	2.430411E-2
1.842500E-7	2.437606E-2
1.843000E-7	2.442060E-2
1.843500E-7	2.444801E-2
1.844000E-7	2.445143E-2
1.844500E-7	2.448227E-2
1.845000E-7	2.451310E-2
1.845500E-7	2.448569E-2
1.846000E-7	2.444801E-2
1.846500E-7	2.446514E-2
1.847000E-7	2.448569E-2
1.847500E-7	2.450625E-2
1.848000E-7	2.457820E-2
1.848500E-7	2.467412E-2
1.849000E-7	2.475635E-2
1.849500E-7	2.485913E-2
1.850000E-7	2.495848E-2
1.850500E-7	2.501330E-2
1.851000E-7	2.504071E-2
1.851500E-7	2.504756E-2
1.852000E-7	2.499274E-2
1.852500E-7	2.491052E-2
1.853000E-7	2.482487E-2
1.853500E-7	2.469125E-2
1.854000E-7	2.452338E-2
1.854500E-7	2.436236E-2
1.855000E-7	2.423217E-2
1.855500E-7	2.417735E-2
1.856000E-7	2.418420E-2
1.856500E-7	2.419791E-2
1.857000E-7	2.425272E-2
1.857500E-7	2.439662E-2
1.858000E-7	2.456449E-2
1.858500E-7	2.472894E-2
1.859000E-7	2.493107E-2
1.859500E-7	2.514691E-2
1.860000E-7	2.533192E-2
1.860500E-7	2.550664E-2
1.861000E-7	2.565396E-2
1.861500E-7	2.571220E-2
1.862000E-7	2.571906E-2
1.862500E-7	2.572933E-2
1.863000E-7	2.570193E-2
1.863500E-7	2.561628E-2
1.864000E-7	2.550322E-2
1.864500E-7	2.540386E-2
1.865000E-7	2.528053E-2
1.865500E-7	2.516747E-2
1.866000E-7	2.510237E-2
1.866500E-7	2.504756E-2
1.867000E-7	2.499617E-2
1.867500E-7	2.497561E-2
1.868000E-7	2.500302E-2
1.868500E-7	2.507497E-2
1.869000E-7	2.514006E-2
1.869500E-7	2.520173E-2
1.870000E-7	2.528395E-2
1.870500E-7	2.536618E-2
1.871000E-7	2.542442E-2
1.871500E-7	2.548951E-2
1.872000E-7	2.553748E-2
1.872500E-7	2.556146E-2
1.873000E-7	2.559915E-2
1.873500E-7	2.563683E-2
1.874000E-7	2.560600E-2
1.874500E-7	2.555118E-2
1.875000E-7	2.550322E-2
1.875500E-7	2.544155E-2
1.876000E-7	2.537303E-2
1.876500E-7	2.529081E-2
1.877000E-7	2.518117E-2
1.877500E-7	2.507497E-2
1.878000E-7	2.498932E-2
1.878500E-7	2.490367E-2
1.879000E-7	2.481459E-2
1.879500E-7	2.476663E-2
1.880000E-7	2.475292E-2
1.880500E-7	2.473922E-2
1.881000E-7	2.472551E-2
1.881500E-7	2.471181E-2
1.882000E-7	2.469125E-2
1.882500E-7	2.467755E-2
1.883000E-7	2.466385E-2
1.883500E-7	2.463986E-2
1.884000E-7	2.458162E-2
1.884500E-7	2.449940E-2
1.885000E-7	2.441032E-2
1.885500E-7	2.432810E-2
1.886000E-7	2.424587E-2
1.886500E-7	2.417050E-2
1.887000E-7	2.411911E-2
1.887500E-7	2.411568E-2
1.888000E-7	2.415337E-2
1.888500E-7	2.419448E-2
1.889000E-7	2.427328E-2
1.889500E-7	2.441032E-2
1.890000E-7	2.454394E-2
1.890500E-7	2.463986E-2
1.891000E-7	2.473579E-2
1.891500E-7	2.482829E-2
1.892000E-7	2.490367E-2
1.892500E-7	2.494820E-2
1.893000E-7	2.496191E-2
1.893500E-7	2.493450E-2
1.894000E-7	2.486255E-2
1.894500E-7	2.477005E-2
1.895000E-7	2.465699E-2
1.895500E-7	2.448912E-2
1.896000E-7	2.430411E-2
1.896500E-7	2.412596E-2
1.897000E-7	2.394096E-2
1.897500E-7	2.376280E-2
1.898000E-7	2.366002E-2
1.898500E-7	2.363262E-2
1.899000E-7	2.363947E-2
1.899500E-7	2.366002E-2
1.900000E-7	2.372169E-2
1.900500E-7	2.384503E-2
1.901000E-7	2.398550E-2
1.901500E-7	2.410541E-2
1.902000E-7	2.423559E-2
1.902500E-7	2.435208E-2
1.903000E-7	2.438976E-2
1.903500E-7	2.440347E-2
1.904000E-7	2.441375E-2
1.904500E-7	2.437949E-2
1.905000E-7	2.430069E-2
1.905500E-7	2.423559E-2
1.906000E-7	2.413624E-2
1.906500E-7	2.402661E-2
1.907000E-7	2.395124E-2
1.907500E-7	2.387929E-2
1.908000E-7	2.380734E-2
1.908500E-7	2.380734E-2
1.909000E-7	2.383475E-2
1.909500E-7	2.383475E-2
1.910000E-7	2.383133E-2
1.910500E-7	2.383475E-2
1.911000E-7	2.384160E-2
1.911500E-7	2.385188E-2
1.912000E-7	2.385531E-2
1.912500E-7	2.386216E-2
1.913000E-7	2.386901E-2
1.913500E-7	2.388957E-2
1.914000E-7	2.391355E-2
1.914500E-7	2.393411E-2
1.915000E-7	2.396151E-2
1.915500E-7	2.399920E-2
1.916000E-7	2.401290E-2
1.916500E-7	2.400948E-2
1.917000E-7	2.404374E-2
1.917500E-7	2.407800E-2
1.918000E-7	2.404031E-2
1.918500E-7	2.397864E-2
1.919000E-7	2.396494E-2
1.919500E-7	2.393068E-2
1.920000E-7	2.386901E-2
1.920500E-7	2.383475E-2
1.921000E-7	2.382105E-2
1.921500E-7	2.379706E-2
1.922000E-7	2.381077E-2
1.922500E-7	2.387244E-2
1.923000E-7	2.393411E-2
1.923500E-7	2.397864E-2
1.924000E-7	2.401633E-2
1.924500E-7	2.409513E-2
1.925000E-7	2.419106E-2
1.925500E-7	2.423559E-2
1.926000E-7	2.423217E-2
1.926500E-7	2.424930E-2
1.927000E-7	2.424930E-2
1.927500E-7	2.420819E-2
1.928000E-7	2.416365E-2
1.928500E-7	2.411568E-2
1.929000E-7	2.408142E-2
1.929500E-7	2.409170E-2
1.930000E-7	2.410883E-2
1.930500E-7	2.412254E-2
1.931000E-7	2.420133E-2
1.931500E-7	2.430754E-2
1.932000E-7	2.438976E-2
1.932500E-7	2.444801E-2
1.933000E-7	2.451995E-2
1.933500E-7	2.457820E-2
1.934000E-7	2.459190E-2
1.934500E-7	2.458505E-2
1.935000E-7	2.457134E-2
1.935500E-7	2.449597E-2
1.936000E-7	2.435208E-2
1.936500E-7	2.419791E-2
1.937000E-7	2.406087E-2
1.937500E-7	2.392040E-2
1.938000E-7	2.377651E-2
1.938500E-7	2.366002E-2
1.939000E-7	2.357437E-2
1.939500E-7	2.353326E-2
1.940000E-7	2.354697E-2
1.940500E-7	2.357780E-2
1.941000E-7	2.357437E-2
1.941500E-7	2.354354E-2
1.942000E-7	2.352984E-2
1.942500E-7	2.351956E-2
1.943000E-7	2.346132E-2
1.943500E-7	2.339280E-2
1.944000E-7	2.333113E-2
1.944500E-7	2.324548E-2
1.945000E-7	2.314270E-2
1.945500E-7	2.305362E-2
1.946000E-7	2.301251E-2
1.946500E-7	2.299195E-2
1.947000E-7	2.301251E-2
1.947500E-7	2.308788E-2
1.948000E-7	2.318724E-2
1.948500E-7	2.327974E-2
1.949000E-7	2.336881E-2
1.949500E-7	2.347159E-2
1.950000E-7	2.355039E-2
1.950500E-7	2.356410E-2
1.951000E-7	2.355039E-2
1.951500E-7	2.356067E-2
1.952000E-7	2.354011E-2
1.952500E-7	2.348187E-2
1.953000E-7	2.344419E-2
1.953500E-7	2.340993E-2
1.954000E-7	2.335854E-2
1.954500E-7	2.334826E-2
1.955000E-7	2.336196E-2
1.955500E-7	2.336539E-2
1.956000E-7	2.342363E-2
1.956500E-7	2.351613E-2
1.957000E-7	2.357437E-2
1.957500E-7	2.364289E-2
1.958000E-7	2.375595E-2
1.958500E-7	2.386216E-2
1.959000E-7	2.394096E-2
1.959500E-7	2.398550E-2
1.960000E-7	2.400605E-2
1.960500E-7	2.401976E-2
1.961000E-7	2.402318E-2
1.961500E-7	2.398550E-2
1.962000E-7	2.390670E-2
1.962500E-7	2.381419E-2
1.963000E-7	2.371484E-2
1.963500E-7	2.360863E-2
1.964000E-7	2.350928E-2
1.964500E-7	2.340993E-2
1.965000E-7	2.333455E-2
1.965500E-7	2.329002E-2
1.966000E-7	2.327974E-2
1.966500E-7	2.328659E-2
1.967000E-7	2.331400E-2
1.967500E-7	2.334483E-2
1.968000E-7	2.338937E-2
1.968500E-7	2.344419E-2
1.969000E-7	2.349900E-2
1.969500E-7	2.354011E-2
1.970000E-7	2.355382E-2
1.970500E-7	2.354354E-2
1.971000E-7	2.351613E-2
1.971500E-7	2.346474E-2
1.972000E-7	2.340307E-2
1.972500E-7	2.338937E-2
1.973000E-7	2.339965E-2
1.973500E-7	2.338252E-2
1.974000E-7	2.335854E-2
1.974500E-7	2.339280E-2
1.975000E-7	2.347502E-2
1.975500E-7	2.355382E-2
1.976000E-7	2.361891E-2
1.976500E-7	2.366688E-2
1.977000E-7	2.370114E-2
1.977500E-7	2.374567E-2
1.978000E-7	2.377993E-2
1.978500E-7	2.374567E-2
1.979000E-7	2.366688E-2
1.979500E-7	2.358808E-2
1.980000E-7	2.349900E-2
1.980500E-7	2.340650E-2
1.981000E-7	2.334141E-2
1.981500E-7	2.328659E-2
1.982000E-7	2.325918E-2
1.982500E-7	2.327631E-2
1.983000E-7	2.331400E-2
1.983500E-7	2.335854E-2
1.984000E-7	2.342363E-2
1.984500E-7	2.348187E-2
1.985000E-7	2.352984E-2
1.985500E-7	2.359150E-2
1.986000E-7	2.361891E-2
1.986500E-7	2.355039E-2
1.987000E-7	2.345104E-2
1.987500E-7	2.336196E-2
1.988000E-7	2.322835E-2
1.988500E-7	2.308103E-2
1.989000E-7	2.298167E-2
1.989500E-7	2.289602E-2
1.990000E-7	2.279324E-2
1.990500E-7	2.273158E-2
1.991000E-7	2.271787E-2
1.991500E-7	2.274528E-2
1.992000E-7	2.280010E-2
1.992500E-7	2.284806E-2
1.993000E-7	2.288917E-2
1.993500E-7	2.295084E-2
1.994000E-7	2.301936E-2
1.994500E-7	2.306732E-2
1.995000E-7	2.309816E-2
1.995500E-7	2.312214E-2
1.996000E-7	2.314612E-2
1.996500E-7	2.317696E-2
1.997000E-7	2.321807E-2
1.997500E-7	2.328316E-2
1.998000E-7	2.335168E-2
1.998500E-7	2.338252E-2
1.999000E-7	2.339622E-2
1.999500E-7	2.346132E-2
2.000000E-7	2.352641E-2
2.000500E-7	2.352984E-2
