Study Name	CF3-Moar-Data
Sample Name	1.5kh-330C
Run Name	spot5
Operator	Mike Short
Date	6/3/2020
Time	17:05
Sign	FIX
Grating Spacing	06.40um
Channel	2
Number Traces	5000
Files in Batch	1
Batch Number	1
dt	50.000001E-12
time stamp (ms)	17:06:00
	
Time	Amplitude
0.000000E+0	-3.802871E-4
5.000000E-11	-3.768611E-4
1.000000E-10	-3.837131E-4
1.500000E-10	-3.391750E-4
2.000000E-10	-2.980629E-4
2.500000E-10	-3.014889E-4
3.000000E-10	-3.049149E-4
3.500000E-10	-3.254709E-4
4.000000E-10	-3.974172E-4
4.500000E-10	-4.385293E-4
5.000000E-10	-4.419553E-4
5.500000E-10	-4.762154E-4
6.000000E-10	-5.344575E-4
6.500000E-10	-5.858477E-4
7.000000E-10	-6.235338E-4
7.500000E-10	-6.269598E-4
8.000000E-10	-6.269598E-4
8.500000E-10	-6.680719E-4
9.000000E-10	-6.817760E-4
9.500000E-10	-6.303858E-4
1.000000E-9	-5.926997E-4
1.050000E-9	-5.926997E-4
1.100000E-9	-5.310315E-4
1.150000E-9	-4.419553E-4
1.200000E-9	-3.802871E-4
1.250000E-9	-2.912108E-4
1.300000E-9	-1.473184E-4
1.350000E-9	-2.740808E-5
1.400000E-9	7.194621E-5
1.450000E-9	1.815785E-4
1.500000E-9	2.877848E-4
1.550000E-9	3.220449E-4
1.600000E-9	2.980629E-4
1.650000E-9	2.877848E-4
1.700000E-9	2.775068E-4
1.750000E-9	1.918566E-4
1.800000E-9	8.565025E-5
1.850000E-9	3.083409E-5
1.900000E-9	-5.139015E-5
1.950000E-9	-1.678745E-4
2.000000E-9	-2.261167E-4
2.050000E-9	-2.398207E-4
2.100000E-9	-2.432467E-4
2.150000E-9	-1.644485E-4
2.200000E-9	-4.111212E-5
2.250000E-9	4.453813E-5
2.300000E-9	1.267624E-4
2.350000E-9	2.500987E-4
2.400000E-9	3.494530E-4
2.450000E-9	4.179732E-4
2.500000E-9	4.864934E-4
2.550000E-9	5.139015E-4
2.600000E-9	4.727894E-4
2.650000E-9	4.042692E-4
2.700000E-9	3.494530E-4
2.750000E-9	2.843588E-4
2.800000E-9	1.678745E-4
2.850000E-9	0.000000E+0
2.900000E-9	-1.473184E-4
2.950000E-9	-2.398207E-4
3.000000E-9	-2.877848E-4
3.050000E-9	-3.014889E-4
3.100000E-9	-2.535247E-4
3.150000E-9	-1.781525E-4
3.200000E-9	-8.907626E-5
3.250000E-9	7.537222E-5
3.300000E-9	3.083409E-4
3.350000E-9	4.590853E-4
3.400000E-9	5.618656E-4
3.450000E-9	7.057580E-4
3.500000E-9	8.085383E-4
3.550000E-9	7.914083E-4
3.600000E-9	7.605742E-4
3.650000E-9	7.023320E-4
3.700000E-9	5.344575E-4
3.750000E-9	3.288970E-4
3.800000E-9	1.370404E-4
3.850000E-9	-7.537222E-5
3.900000E-9	-2.535247E-4
3.950000E-9	-3.597310E-4
4.000000E-9	-4.453813E-4
4.050000E-9	-4.830674E-4
4.100000E-9	-4.316773E-4
4.150000E-9	-3.665831E-4
4.200000E-9	-3.151929E-4
4.250000E-9	-2.569507E-4
4.300000E-9	-2.021346E-4
4.350000E-9	-1.473184E-4
4.400000E-9	-8.907626E-5
4.450000E-9	-7.879823E-5
4.500000E-9	-1.164843E-4
4.550000E-9	-1.678745E-4
4.600000E-9	-2.055606E-4
4.650000E-9	-2.535247E-4
4.700000E-9	-2.672288E-4
4.750000E-9	-2.398207E-4
4.800000E-9	-2.021346E-4
4.850000E-9	-1.370404E-4
4.900000E-9	-4.453813E-5
4.950000E-9	4.111212E-5
5.000000E-9	1.062063E-4
5.050000E-9	1.713005E-4
5.100000E-9	2.261167E-4
5.150000E-9	2.398207E-4
5.200000E-9	1.987086E-4
5.250000E-9	1.404664E-4
5.300000E-9	9.250227E-5
5.350000E-9	5.824217E-5
5.400000E-9	-3.426010E-6
5.450000E-9	-7.537222E-5
5.500000E-9	-1.096323E-4
5.550000E-9	-1.062063E-4
5.600000E-9	-9.935429E-5
5.650000E-9	-1.130583E-4
5.700000E-9	-1.404664E-4
5.750000E-9	-1.644485E-4
5.800000E-9	-1.644485E-4
5.850000E-9	-1.747265E-4
5.900000E-9	-2.192646E-4
5.950000E-9	-2.740808E-4
6.000000E-9	-3.186189E-4
6.050000E-9	-3.528790E-4
6.100000E-9	-3.391750E-4
6.150000E-9	-3.049149E-4
6.200000E-9	-2.980629E-4
6.250000E-9	-2.569507E-4
6.300000E-9	-1.918566E-4
6.350000E-9	-1.678745E-4
6.400000E-9	-1.575965E-4
6.450000E-9	-1.336144E-4
6.500000E-9	-1.507444E-4
6.550000E-9	-1.987086E-4
6.600000E-9	-2.500987E-4
6.650000E-9	-3.186189E-4
6.700000E-9	-3.974172E-4
6.750000E-9	-4.659373E-4
6.800000E-9	-5.070495E-4
6.850000E-9	-5.310315E-4
6.900000E-9	-5.310315E-4
6.950000E-9	-4.967714E-4
7.000000E-9	-4.385293E-4
7.050000E-9	-3.563050E-4
7.100000E-9	-2.500987E-4
7.150000E-9	-1.267624E-4
7.200000E-9	1.370404E-5
7.250000E-9	1.438924E-4
7.300000E-9	2.329687E-4
7.350000E-9	2.912108E-4
7.400000E-9	3.254709E-4
7.450000E-9	3.117669E-4
7.500000E-9	2.638028E-4
7.550000E-9	2.089866E-4
7.600000E-9	1.404664E-4
7.650000E-9	6.166818E-5
7.700000E-9	-3.426010E-6
7.750000E-9	-5.824217E-5
7.800000E-9	-9.250227E-5
7.850000E-9	-1.096323E-4
7.900000E-9	-1.027803E-4
7.950000E-9	-7.537222E-5
8.000000E-9	-4.796414E-5
8.050000E-9	0.000000E+0
8.100000E-9	5.824217E-5
8.150000E-9	9.250227E-5
8.200000E-9	9.592828E-5
8.250000E-9	9.250227E-5
8.300000E-9	9.935429E-5
8.350000E-9	1.062063E-4
8.400000E-9	8.565025E-5
8.450000E-9	4.111212E-5
8.500000E-9	1.370404E-5
8.550000E-9	1.713005E-5
8.600000E-9	3.426010E-5
8.650000E-9	5.139015E-5
8.700000E-9	8.565025E-5
8.750000E-9	1.199103E-4
8.800000E-9	1.473184E-4
8.850000E-9	1.918566E-4
8.900000E-9	2.535247E-4
8.950000E-9	2.877848E-4
9.000000E-9	2.740808E-4
9.050000E-9	2.295427E-4
9.100000E-9	1.610225E-4
9.150000E-9	5.824217E-5
9.200000E-9	-8.565025E-5
9.250000E-9	-2.158386E-4
9.300000E-9	-3.151929E-4
9.350000E-9	-4.179732E-4
9.400000E-9	-5.241795E-4
9.450000E-9	-5.892737E-4
9.500000E-9	-6.132558E-4
9.550000E-9	-5.858477E-4
9.600000E-9	-4.796414E-4
9.650000E-9	-3.563050E-4
9.700000E-9	-2.569507E-4
9.750000E-9	-1.438924E-4
9.800000E-9	2.398207E-5
9.850000E-9	2.535247E-4
9.900000E-9	6.029777E-4
9.950000E-9	1.127157E-3
1.000000E-8	1.850045E-3
1.005000E-8	2.867570E-3
1.010000E-8	4.248252E-3
1.015000E-8	6.026351E-3
1.020000E-8	8.294370E-3
1.025000E-8	1.109342E-2
1.030000E-8	1.438924E-2
1.035000E-8	1.814415E-2
1.040000E-8	2.226564E-2
1.045000E-8	2.665436E-2
1.050000E-8	3.124521E-2
1.055000E-8	3.593199E-2
1.060000E-8	4.055025E-2
1.065000E-8	4.498694E-2
1.070000E-8	4.918037E-2
1.075000E-8	5.309973E-2
1.080000E-8	5.668676E-2
1.085000E-8	5.990721E-2
1.090000E-8	6.277821E-2
1.095000E-8	6.541623E-2
1.100000E-8	6.790009E-2
1.105000E-8	7.021607E-2
1.110000E-8	7.239502E-2
1.115000E-8	7.454655E-2
1.120000E-8	7.666725E-2
1.125000E-8	7.869887E-2
1.130000E-8	8.067911E-2
1.135000E-8	8.258054E-2
1.140000E-8	8.427299E-2
1.145000E-8	8.567423E-2
1.150000E-8	8.676028E-2
1.155000E-8	8.747631E-2
1.160000E-8	8.777095E-2
1.165000E-8	8.762706E-2
1.170000E-8	8.703778E-2
1.175000E-8	8.605452E-2
1.180000E-8	8.471152E-2
1.185000E-8	8.302592E-2
1.190000E-8	8.108338E-2
1.195000E-8	7.900036E-2
1.200000E-8	7.679059E-2
1.205000E-8	7.449173E-2
1.210000E-8	7.225112E-2
1.215000E-8	7.012700E-2
1.220000E-8	6.807824E-2
1.225000E-8	6.621449E-2
1.230000E-8	6.465566E-2
1.235000E-8	6.331952E-2
1.240000E-8	6.222662E-2
1.245000E-8	6.144549E-2
1.250000E-8	6.094872E-2
1.255000E-8	6.072260E-2
1.260000E-8	6.079112E-2
1.265000E-8	6.106863E-2
1.270000E-8	6.153799E-2
1.275000E-8	6.225403E-2
1.280000E-8	6.310368E-2
1.285000E-8	6.400129E-2
1.290000E-8	6.501196E-2
1.295000E-8	6.611857E-2
1.300000E-8	6.721831E-2
1.305000E-8	6.832834E-2
1.310000E-8	6.945550E-2
1.315000E-8	7.054840E-2
1.320000E-8	7.159676E-2
1.325000E-8	7.262113E-2
1.330000E-8	7.361125E-2
1.335000E-8	7.454312E-2
1.340000E-8	7.540648E-2
1.345000E-8	7.618761E-2
1.350000E-8	7.691735E-2
1.355000E-8	7.759570E-2
1.360000E-8	7.819182E-2
1.365000E-8	7.871258E-2
1.370000E-8	7.913740E-2
1.375000E-8	7.942176E-2
1.380000E-8	7.961704E-2
1.385000E-8	7.973696E-2
1.390000E-8	7.973353E-2
1.395000E-8	7.958621E-2
1.400000E-8	7.930870E-2
1.405000E-8	7.888045E-2
1.410000E-8	7.831859E-2
1.415000E-8	7.762996E-2
1.420000E-8	7.679744E-2
1.425000E-8	7.586214E-2
1.430000E-8	7.487887E-2
1.435000E-8	7.382024E-2
1.440000E-8	7.267595E-2
1.445000E-8	7.152824E-2
1.450000E-8	7.044562E-2
1.455000E-8	6.941439E-2
1.460000E-8	6.844140E-2
1.465000E-8	6.758147E-2
1.470000E-8	6.683118E-2
1.475000E-8	6.621107E-2
1.480000E-8	6.572457E-2
1.485000E-8	6.538540E-2
1.490000E-8	6.523808E-2
1.495000E-8	6.526892E-2
1.500000E-8	6.537170E-2
1.505000E-8	6.558068E-2
1.510000E-8	6.595754E-2
1.515000E-8	6.645774E-2
1.520000E-8	6.698877E-2
1.525000E-8	6.751980E-2
1.530000E-8	6.808510E-2
1.535000E-8	6.869150E-2
1.540000E-8	6.925679E-2
1.545000E-8	6.978097E-2
1.550000E-8	7.027774E-2
1.555000E-8	7.071970E-2
1.560000E-8	7.112739E-2
1.565000E-8	7.156935E-2
1.570000E-8	7.204899E-2
1.575000E-8	7.255261E-2
1.580000E-8	7.305624E-2
1.585000E-8	7.357356E-2
1.590000E-8	7.412515E-2
1.595000E-8	7.466303E-2
1.600000E-8	7.516323E-2
1.605000E-8	7.562232E-2
1.610000E-8	7.598205E-2
1.615000E-8	7.620474E-2
1.620000E-8	7.631780E-2
1.625000E-8	7.633493E-2
1.630000E-8	7.621502E-2
1.635000E-8	7.599575E-2
1.640000E-8	7.569084E-2
1.645000E-8	7.528657E-2
1.650000E-8	7.482748E-2
1.655000E-8	7.437182E-2
1.660000E-8	7.388876E-2
1.665000E-8	7.336800E-2
1.670000E-8	7.285753E-2
1.675000E-8	7.235048E-2
1.680000E-8	7.182630E-2
1.685000E-8	7.130554E-2
1.690000E-8	7.078479E-2
1.695000E-8	7.027774E-2
1.700000E-8	6.981180E-2
1.705000E-8	6.934929E-2
1.710000E-8	6.890049E-2
1.715000E-8	6.850649E-2
1.720000E-8	6.815704E-2
1.725000E-8	6.784870E-2
1.730000E-8	6.761231E-2
1.735000E-8	6.744101E-2
1.740000E-8	6.731767E-2
1.745000E-8	6.720118E-2
1.750000E-8	6.712239E-2
1.755000E-8	6.714979E-2
1.760000E-8	6.723202E-2
1.765000E-8	6.728683E-2
1.770000E-8	6.737591E-2
1.775000E-8	6.753351E-2
1.780000E-8	6.767740E-2
1.785000E-8	6.781101E-2
1.790000E-8	6.802343E-2
1.795000E-8	6.827695E-2
1.800000E-8	6.849964E-2
1.805000E-8	6.877372E-2
1.810000E-8	6.910262E-2
1.815000E-8	6.946235E-2
1.820000E-8	6.986662E-2
1.825000E-8	7.028117E-2
1.830000E-8	7.069229E-2
1.835000E-8	7.113767E-2
1.840000E-8	7.159676E-2
1.845000E-8	7.203186E-2
1.850000E-8	7.249094E-2
1.855000E-8	7.292605E-2
1.860000E-8	7.328235E-2
1.865000E-8	7.359412E-2
1.870000E-8	7.388876E-2
1.875000E-8	7.410459E-2
1.880000E-8	7.424164E-2
1.885000E-8	7.437182E-2
1.890000E-8	7.444034E-2
1.895000E-8	7.440266E-2
1.900000E-8	7.432043E-2
1.905000E-8	7.421765E-2
1.910000E-8	7.403265E-2
1.915000E-8	7.379968E-2
1.920000E-8	7.353245E-2
1.925000E-8	7.317957E-2
1.930000E-8	7.275132E-2
1.935000E-8	7.228196E-2
1.940000E-8	7.175778E-2
1.945000E-8	7.117878E-2
1.950000E-8	7.057238E-2
1.955000E-8	6.992144E-2
1.960000E-8	6.919512E-2
1.965000E-8	6.844825E-2
1.970000E-8	6.773907E-2
1.975000E-8	6.702303E-2
1.980000E-8	6.629672E-2
1.985000E-8	6.562522E-2
1.990000E-8	6.499826E-2
1.995000E-8	6.442612E-2
2.000000E-8	6.392592E-2
2.005000E-8	6.349082E-2
2.010000E-8	6.315849E-2
2.015000E-8	6.295293E-2
2.020000E-8	6.286043E-2
2.025000E-8	6.290154E-2
2.030000E-8	6.310025E-2
2.035000E-8	6.341544E-2
2.040000E-8	6.382656E-2
2.045000E-8	6.433361E-2
2.050000E-8	6.495715E-2
2.055000E-8	6.569031E-2
2.060000E-8	6.646802E-2
2.065000E-8	6.725257E-2
2.070000E-8	6.808852E-2
2.075000E-8	6.896901E-2
2.080000E-8	6.981523E-2
2.085000E-8	7.058951E-2
2.090000E-8	7.131582E-2
2.095000E-8	7.199760E-2
2.100000E-8	7.262456E-2
2.105000E-8	7.315902E-2
2.110000E-8	7.362153E-2
2.115000E-8	7.403950E-2
2.120000E-8	7.436155E-2
2.125000E-8	7.455683E-2
2.130000E-8	7.466646E-2
2.135000E-8	7.466989E-2
2.140000E-8	7.453627E-2
2.145000E-8	7.431016E-2
2.150000E-8	7.399154E-2
2.155000E-8	7.354958E-2
2.160000E-8	7.302198E-2
2.165000E-8	7.246696E-2
2.170000E-8	7.183658E-2
2.175000E-8	7.111711E-2
2.180000E-8	7.030858E-2
2.185000E-8	6.943837E-2
2.190000E-8	6.857501E-2
2.195000E-8	6.772194E-2
2.200000E-8	6.681405E-2
2.205000E-8	6.588217E-2
2.210000E-8	6.499483E-2
2.215000E-8	6.414861E-2
2.220000E-8	6.333322E-2
2.225000E-8	6.260348E-2
2.230000E-8	6.196967E-2
2.235000E-8	6.139410E-2
2.240000E-8	6.094186E-2
2.245000E-8	6.070547E-2
2.250000E-8	6.062325E-2
2.255000E-8	6.061982E-2
2.260000E-8	6.077399E-2
2.265000E-8	6.112002E-2
2.270000E-8	6.156197E-2
2.275000E-8	6.208958E-2
2.280000E-8	6.271996E-2
2.285000E-8	6.340174E-2
2.290000E-8	6.412463E-2
2.295000E-8	6.489548E-2
2.300000E-8	6.568004E-2
2.305000E-8	6.647487E-2
2.310000E-8	6.733823E-2
2.315000E-8	6.823241E-2
2.320000E-8	6.911632E-2
2.325000E-8	7.003107E-2
2.330000E-8	7.095267E-2
2.335000E-8	7.182287E-2
2.340000E-8	7.265539E-2
2.345000E-8	7.343652E-2
2.350000E-8	7.412172E-2
2.355000E-8	7.469044E-2
2.360000E-8	7.510499E-2
2.365000E-8	7.532768E-2
2.370000E-8	7.537907E-2
2.375000E-8	7.526944E-2
2.380000E-8	7.497138E-2
2.385000E-8	7.447803E-2
2.390000E-8	7.386477E-2
2.395000E-8	7.315559E-2
2.400000E-8	7.229909E-2
2.405000E-8	7.134323E-2
2.410000E-8	7.034969E-2
2.415000E-8	6.931846E-2
2.420000E-8	6.824954E-2
2.425000E-8	6.717378E-2
2.430000E-8	6.607403E-2
2.435000E-8	6.499483E-2
2.440000E-8	6.398074E-2
2.445000E-8	6.297349E-2
2.450000E-8	6.197995E-2
2.455000E-8	6.110631E-2
2.460000E-8	6.034231E-2
2.465000E-8	5.966054E-2
2.470000E-8	5.913978E-2
2.475000E-8	5.880746E-2
2.480000E-8	5.860533E-2
2.485000E-8	5.854366E-2
2.490000E-8	5.864301E-2
2.495000E-8	5.888968E-2
2.500000E-8	5.926997E-2
2.505000E-8	5.977360E-2
2.510000E-8	6.039028E-2
2.515000E-8	6.107548E-2
2.520000E-8	6.181892E-2
2.525000E-8	6.261718E-2
2.530000E-8	6.346683E-2
2.535000E-8	6.435417E-2
2.540000E-8	6.524836E-2
2.545000E-8	6.613570E-2
2.550000E-8	6.702988E-2
2.555000E-8	6.791379E-2
2.560000E-8	6.874974E-2
2.565000E-8	6.953087E-2
2.570000E-8	7.026061E-2
2.575000E-8	7.090128E-2
2.580000E-8	7.141518E-2
2.585000E-8	7.178861E-2
2.590000E-8	7.205241E-2
2.595000E-8	7.220316E-2
2.600000E-8	7.221686E-2
2.605000E-8	7.207982E-2
2.610000E-8	7.183315E-2
2.615000E-8	7.149398E-2
2.620000E-8	7.101776E-2
2.625000E-8	7.042506E-2
2.630000E-8	6.978097E-2
2.635000E-8	6.908549E-2
2.640000E-8	6.830779E-2
2.645000E-8	6.746841E-2
2.650000E-8	6.657765E-2
2.655000E-8	6.563550E-2
2.660000E-8	6.465223E-2
2.665000E-8	6.365184E-2
2.670000E-8	6.263774E-2
2.675000E-8	6.164762E-2
2.680000E-8	6.070547E-2
2.685000E-8	5.981813E-2
2.690000E-8	5.903015E-2
2.695000E-8	5.838949E-2
2.700000E-8	5.789272E-2
2.705000E-8	5.752956E-2
2.710000E-8	5.731372E-2
2.715000E-8	5.725890E-2
2.720000E-8	5.734798E-2
2.725000E-8	5.755354E-2
2.730000E-8	5.786188E-2
2.735000E-8	5.828328E-2
2.740000E-8	5.882459E-2
2.745000E-8	5.944470E-2
2.750000E-8	6.011620E-2
2.755000E-8	6.081510E-2
2.760000E-8	6.152771E-2
2.765000E-8	6.225403E-2
2.770000E-8	6.301803E-2
2.775000E-8	6.381286E-2
2.780000E-8	6.459742E-2
2.785000E-8	6.534086E-2
2.790000E-8	6.608088E-2
2.795000E-8	6.681405E-2
2.800000E-8	6.745471E-2
2.805000E-8	6.798917E-2
2.810000E-8	6.847566E-2
2.815000E-8	6.885252E-2
2.820000E-8	6.905466E-2
2.825000E-8	6.913688E-2
2.830000E-8	6.914716E-2
2.835000E-8	6.905466E-2
2.840000E-8	6.883539E-2
2.845000E-8	6.850307E-2
2.850000E-8	6.809880E-2
2.855000E-8	6.766027E-2
2.860000E-8	6.716350E-2
2.865000E-8	6.655709E-2
2.870000E-8	6.593356E-2
2.875000E-8	6.534429E-2
2.880000E-8	6.466936E-2
2.885000E-8	6.393277E-2
2.890000E-8	6.325785E-2
2.895000E-8	6.260691E-2
2.900000E-8	6.193883E-2
2.905000E-8	6.133586E-2
2.910000E-8	6.081510E-2
2.915000E-8	6.033889E-2
2.920000E-8	5.994147E-2
2.925000E-8	5.966396E-2
2.930000E-8	5.946868E-2
2.935000E-8	5.936590E-2
2.940000E-8	5.937618E-2
2.945000E-8	5.946525E-2
2.950000E-8	5.957831E-2
2.955000E-8	5.973934E-2
2.960000E-8	5.995860E-2
2.965000E-8	6.018129E-2
2.970000E-8	6.039713E-2
2.975000E-8	6.066093E-2
2.980000E-8	6.092131E-2
2.985000E-8	6.116113E-2
2.990000E-8	6.143178E-2
2.995000E-8	6.174355E-2
3.000000E-8	6.204161E-2
3.005000E-8	6.235338E-2
3.010000E-8	6.274737E-2
3.015000E-8	6.319618E-2
3.020000E-8	6.364156E-2
3.025000E-8	6.409379E-2
3.030000E-8	6.458371E-2
3.035000E-8	6.507021E-2
3.040000E-8	6.547790E-2
3.045000E-8	6.581708E-2
3.050000E-8	6.613912E-2
3.055000E-8	6.637209E-2
3.060000E-8	6.649200E-2
3.065000E-8	6.654339E-2
3.070000E-8	6.648172E-2
3.075000E-8	6.628644E-2
3.080000E-8	6.605005E-2
3.085000E-8	6.577596E-2
3.090000E-8	6.539225E-2
3.095000E-8	6.496057E-2
3.100000E-8	6.453575E-2
3.105000E-8	6.409722E-2
3.110000E-8	6.365869E-2
3.115000E-8	6.324757E-2
3.120000E-8	6.286043E-2
3.125000E-8	6.249385E-2
3.130000E-8	6.215467E-2
3.135000E-8	6.181892E-2
3.140000E-8	6.150373E-2
3.145000E-8	6.120224E-2
3.150000E-8	6.093844E-2
3.155000E-8	6.072260E-2
3.160000E-8	6.052047E-2
3.165000E-8	6.031490E-2
3.170000E-8	6.014018E-2
3.175000E-8	6.001684E-2
3.180000E-8	5.990378E-2
3.185000E-8	5.980443E-2
3.190000E-8	5.978045E-2
3.195000E-8	5.981471E-2
3.200000E-8	5.984897E-2
3.205000E-8	5.990378E-2
3.210000E-8	6.002712E-2
3.215000E-8	6.018814E-2
3.220000E-8	6.038000E-2
3.225000E-8	6.064380E-2
3.230000E-8	6.096585E-2
3.235000E-8	6.129817E-2
3.240000E-8	6.163734E-2
3.245000E-8	6.203819E-2
3.250000E-8	6.245616E-2
3.255000E-8	6.285015E-2
3.260000E-8	6.322359E-2
3.265000E-8	6.354906E-2
3.270000E-8	6.383684E-2
3.275000E-8	6.412463E-2
3.280000E-8	6.436787E-2
3.285000E-8	6.453232E-2
3.290000E-8	6.467279E-2
3.295000E-8	6.479613E-2
3.300000E-8	6.488863E-2
3.305000E-8	6.496057E-2
3.310000E-8	6.500854E-2
3.315000E-8	6.502567E-2
3.320000E-8	6.504622E-2
3.325000E-8	6.503252E-2
3.330000E-8	6.496057E-2
3.335000E-8	6.487150E-2
3.340000E-8	6.479270E-2
3.345000E-8	6.470705E-2
3.350000E-8	6.457344E-2
3.355000E-8	6.439186E-2
3.360000E-8	6.418972E-2
3.365000E-8	6.397731E-2
3.370000E-8	6.370323E-2
3.375000E-8	6.334692E-2
3.380000E-8	6.296321E-2
3.385000E-8	6.256922E-2
3.390000E-8	6.213754E-2
3.395000E-8	6.164420E-2
3.400000E-8	6.108918E-2
3.405000E-8	6.055815E-2
3.410000E-8	6.007508E-2
3.415000E-8	5.958516E-2
3.420000E-8	5.909525E-2
3.425000E-8	5.867042E-2
3.430000E-8	5.829013E-2
3.435000E-8	5.792012E-2
3.440000E-8	5.761178E-2
3.445000E-8	5.737539E-2
3.450000E-8	5.718696E-2
3.455000E-8	5.706362E-2
3.460000E-8	5.697797E-2
3.465000E-8	5.691630E-2
3.470000E-8	5.694028E-2
3.475000E-8	5.703621E-2
3.480000E-8	5.716298E-2
3.485000E-8	5.732400E-2
3.490000E-8	5.751928E-2
3.495000E-8	5.776253E-2
3.500000E-8	5.804689E-2
3.505000E-8	5.834152E-2
3.510000E-8	5.868070E-2
3.515000E-8	5.909867E-2
3.520000E-8	5.951664E-2
3.525000E-8	5.991406E-2
3.530000E-8	6.038000E-2
3.535000E-8	6.089733E-2
3.540000E-8	6.136669E-2
3.545000E-8	6.179152E-2
3.550000E-8	6.223004E-2
3.555000E-8	6.262746E-2
3.560000E-8	6.293580E-2
3.565000E-8	6.315164E-2
3.570000E-8	6.326470E-2
3.575000E-8	6.327840E-2
3.580000E-8	6.319618E-2
3.585000E-8	6.301803E-2
3.590000E-8	6.276793E-2
3.595000E-8	6.247672E-2
3.600000E-8	6.217180E-2
3.605000E-8	6.182578E-2
3.610000E-8	6.143178E-2
3.615000E-8	6.105150E-2
3.620000E-8	6.070547E-2
3.625000E-8	6.035944E-2
3.630000E-8	6.002027E-2
3.635000E-8	5.972906E-2
3.640000E-8	5.942414E-2
3.645000E-8	5.909867E-2
3.650000E-8	5.879033E-2
3.655000E-8	5.850255E-2
3.660000E-8	5.820791E-2
3.665000E-8	5.794411E-2
3.670000E-8	5.772827E-2
3.675000E-8	5.756382E-2
3.680000E-8	5.745419E-2
3.685000E-8	5.740622E-2
3.690000E-8	5.745761E-2
3.695000E-8	5.761521E-2
3.700000E-8	5.781392E-2
3.705000E-8	5.803661E-2
3.710000E-8	5.833467E-2
3.715000E-8	5.872524E-2
3.720000E-8	5.913636E-2
3.725000E-8	5.954405E-2
3.730000E-8	5.995860E-2
3.735000E-8	6.039370E-2
3.740000E-8	6.085964E-2
3.745000E-8	6.133928E-2
3.750000E-8	6.180865E-2
3.755000E-8	6.227116E-2
3.760000E-8	6.273367E-2
3.765000E-8	6.320646E-2
3.770000E-8	6.369295E-2
3.775000E-8	6.412120E-2
3.780000E-8	6.447751E-2
3.785000E-8	6.479270E-2
3.790000E-8	6.505308E-2
3.795000E-8	6.519697E-2
3.800000E-8	6.524493E-2
3.805000E-8	6.519697E-2
3.810000E-8	6.503937E-2
3.815000E-8	6.477900E-2
3.820000E-8	6.441241E-2
3.825000E-8	6.393962E-2
3.830000E-8	6.340174E-2
3.835000E-8	6.282274E-2
3.840000E-8	6.218208E-2
3.845000E-8	6.149345E-2
3.850000E-8	6.083223E-2
3.855000E-8	6.018129E-2
3.860000E-8	5.951322E-2
3.865000E-8	5.886228E-2
3.870000E-8	5.822161E-2
3.875000E-8	5.758780E-2
3.880000E-8	5.701908E-2
3.885000E-8	5.650176E-2
3.890000E-8	5.597758E-2
3.895000E-8	5.547738E-2
3.900000E-8	5.504913E-2
3.905000E-8	5.467227E-2
3.910000E-8	5.436050E-2
3.915000E-8	5.412410E-2
3.920000E-8	5.392882E-2
3.925000E-8	5.379863E-2
3.930000E-8	5.380206E-2
3.935000E-8	5.390484E-2
3.940000E-8	5.405216E-2
3.945000E-8	5.430568E-2
3.950000E-8	5.470995E-2
3.955000E-8	5.516904E-2
3.960000E-8	5.564868E-2
3.965000E-8	5.620369E-2
3.970000E-8	5.681695E-2
3.975000E-8	5.745419E-2
3.980000E-8	5.811198E-2
3.985000E-8	5.874922E-2
3.990000E-8	5.935562E-2
3.995000E-8	5.996203E-2
4.000000E-8	6.052732E-2
4.005000E-8	6.099668E-2
4.010000E-8	6.140438E-2
4.015000E-8	6.173670E-2
4.020000E-8	6.193541E-2
4.025000E-8	6.202106E-2
4.030000E-8	6.205874E-2
4.035000E-8	6.204847E-2
4.040000E-8	6.195254E-2
4.045000E-8	6.175040E-2
4.050000E-8	6.147632E-2
4.055000E-8	6.117141E-2
4.060000E-8	6.084936E-2
4.065000E-8	6.052389E-2
4.070000E-8	6.020527E-2
4.075000E-8	5.989693E-2
4.080000E-8	5.960915E-2
4.085000E-8	5.932479E-2
4.090000E-8	5.902330E-2
4.095000E-8	5.870125E-2
4.100000E-8	5.838264E-2
4.105000E-8	5.805716E-2
4.110000E-8	5.771799E-2
4.115000E-8	5.738224E-2
4.120000E-8	5.704307E-2
4.125000E-8	5.670046E-2
4.130000E-8	5.642638E-2
4.135000E-8	5.620712E-2
4.140000E-8	5.600841E-2
4.145000E-8	5.585767E-2
4.150000E-8	5.581313E-2
4.155000E-8	5.584739E-2
4.160000E-8	5.592619E-2
4.165000E-8	5.604952E-2
4.170000E-8	5.625508E-2
4.175000E-8	5.655657E-2
4.180000E-8	5.688204E-2
4.185000E-8	5.719381E-2
4.190000E-8	5.755697E-2
4.195000E-8	5.797837E-2
4.200000E-8	5.841347E-2
4.205000E-8	5.884857E-2
4.210000E-8	5.927340E-2
4.215000E-8	5.970850E-2
4.220000E-8	6.014360E-2
4.225000E-8	6.054787E-2
4.230000E-8	6.088705E-2
4.235000E-8	6.118511E-2
4.240000E-8	6.142836E-2
4.245000E-8	6.161679E-2
4.250000E-8	6.176411E-2
4.255000E-8	6.185661E-2
4.260000E-8	6.188402E-2
4.265000E-8	6.186004E-2
4.270000E-8	6.180179E-2
4.275000E-8	6.172642E-2
4.280000E-8	6.159281E-2
4.285000E-8	6.137012E-2
4.290000E-8	6.111317E-2
4.295000E-8	6.080140E-2
4.300000E-8	6.041769E-2
4.305000E-8	6.000314E-2
4.310000E-8	5.957146E-2
4.315000E-8	5.908154E-2
4.320000E-8	5.853338E-2
4.325000E-8	5.797837E-2
4.330000E-8	5.745076E-2
4.335000E-8	5.696084E-2
4.340000E-8	5.648805E-2
4.345000E-8	5.602897E-2
4.350000E-8	5.565896E-2
4.355000E-8	5.539173E-2
4.360000E-8	5.515533E-2
4.365000E-8	5.497376E-2
4.370000E-8	5.489153E-2
4.375000E-8	5.483671E-2
4.380000E-8	5.482301E-2
4.385000E-8	5.488811E-2
4.390000E-8	5.498746E-2
4.395000E-8	5.509709E-2
4.400000E-8	5.524098E-2
4.405000E-8	5.537802E-2
4.410000E-8	5.545682E-2
4.415000E-8	5.554590E-2
4.420000E-8	5.567266E-2
4.425000E-8	5.579600E-2
4.430000E-8	5.591933E-2
4.435000E-8	5.606323E-2
4.440000E-8	5.623453E-2
4.445000E-8	5.644694E-2
4.450000E-8	5.669019E-2
4.455000E-8	5.696084E-2
4.460000E-8	5.724863E-2
4.465000E-8	5.750900E-2
4.470000E-8	5.774197E-2
4.475000E-8	5.796466E-2
4.480000E-8	5.815309E-2
4.485000E-8	5.828328E-2
4.490000E-8	5.837578E-2
4.495000E-8	5.841690E-2
4.500000E-8	5.837921E-2
4.505000E-8	5.832439E-2
4.510000E-8	5.829698E-2
4.515000E-8	5.823189E-2
4.520000E-8	5.811541E-2
4.525000E-8	5.804346E-2
4.530000E-8	5.800235E-2
4.535000E-8	5.790642E-2
4.540000E-8	5.777623E-2
4.545000E-8	5.769058E-2
4.550000E-8	5.758095E-2
4.555000E-8	5.741650E-2
4.560000E-8	5.726918E-2
4.565000E-8	5.711501E-2
4.570000E-8	5.688547E-2
4.575000E-8	5.662852E-2
4.580000E-8	5.635786E-2
4.585000E-8	5.607008E-2
4.590000E-8	5.582683E-2
4.595000E-8	5.564868E-2
4.600000E-8	5.544997E-2
4.605000E-8	5.524441E-2
4.610000E-8	5.513478E-2
4.615000E-8	5.508339E-2
4.620000E-8	5.503200E-2
4.625000E-8	5.504228E-2
4.630000E-8	5.512793E-2
4.635000E-8	5.524441E-2
4.640000E-8	5.539515E-2
4.645000E-8	5.559044E-2
4.650000E-8	5.576859E-2
4.655000E-8	5.595359E-2
4.660000E-8	5.614545E-2
4.665000E-8	5.630647E-2
4.670000E-8	5.644351E-2
4.675000E-8	5.655657E-2
4.680000E-8	5.663537E-2
4.685000E-8	5.668676E-2
4.690000E-8	5.671074E-2
4.695000E-8	5.670732E-2
4.700000E-8	5.669361E-2
4.705000E-8	5.667306E-2
4.710000E-8	5.668676E-2
4.715000E-8	5.675185E-2
4.720000E-8	5.684093E-2
4.725000E-8	5.694028E-2
4.730000E-8	5.709446E-2
4.735000E-8	5.729659E-2
4.740000E-8	5.751585E-2
4.745000E-8	5.774197E-2
4.750000E-8	5.797151E-2
4.755000E-8	5.813596E-2
4.760000E-8	5.823189E-2
4.765000E-8	5.829698E-2
4.770000E-8	5.828671E-2
4.775000E-8	5.812911E-2
4.780000E-8	5.787559E-2
4.785000E-8	5.757067E-2
4.790000E-8	5.718353E-2
4.795000E-8	5.672787E-2
4.800000E-8	5.625851E-2
4.805000E-8	5.578915E-2
4.810000E-8	5.532321E-2
4.815000E-8	5.492237E-2
4.820000E-8	5.460375E-2
4.825000E-8	5.431939E-2
4.830000E-8	5.411383E-2
4.835000E-8	5.401447E-2
4.840000E-8	5.395623E-2
4.845000E-8	5.391854E-2
4.850000E-8	5.395623E-2
4.855000E-8	5.403503E-2
4.860000E-8	5.412068E-2
4.865000E-8	5.419605E-2
4.870000E-8	5.426800E-2
4.875000E-8	5.433652E-2
4.880000E-8	5.438791E-2
4.885000E-8	5.440161E-2
4.890000E-8	5.442902E-2
4.895000E-8	5.449754E-2
4.900000E-8	5.453865E-2
4.905000E-8	5.455236E-2
4.910000E-8	5.459347E-2
4.915000E-8	5.464486E-2
4.920000E-8	5.467227E-2
4.925000E-8	5.471338E-2
4.930000E-8	5.478532E-2
4.935000E-8	5.489153E-2
4.940000E-8	5.499774E-2
4.945000E-8	5.509709E-2
4.950000E-8	5.522728E-2
4.955000E-8	5.537117E-2
4.960000E-8	5.552192E-2
4.965000E-8	5.571377E-2
4.970000E-8	5.593646E-2
4.975000E-8	5.616943E-2
4.980000E-8	5.641611E-2
4.985000E-8	5.666620E-2
4.990000E-8	5.688204E-2
4.995000E-8	5.709446E-2
5.000000E-8	5.728289E-2
5.005000E-8	5.737196E-2
5.010000E-8	5.740280E-2
5.015000E-8	5.743363E-2
5.020000E-8	5.739252E-2
5.025000E-8	5.724863E-2
5.030000E-8	5.709446E-2
5.035000E-8	5.693343E-2
5.040000E-8	5.671417E-2
5.045000E-8	5.646064E-2
5.050000E-8	5.620027E-2
5.055000E-8	5.589535E-2
5.060000E-8	5.556303E-2
5.065000E-8	5.526497E-2
5.070000E-8	5.499774E-2
5.075000E-8	5.471338E-2
5.080000E-8	5.442559E-2
5.085000E-8	5.413438E-2
5.090000E-8	5.382604E-2
5.095000E-8	5.352455E-2
5.100000E-8	5.323677E-2
5.105000E-8	5.297297E-2
5.110000E-8	5.273657E-2
5.115000E-8	5.255842E-2
5.120000E-8	5.241795E-2
5.125000E-8	5.227063E-2
5.130000E-8	5.219184E-2
5.135000E-8	5.221924E-2
5.140000E-8	5.226036E-2
5.145000E-8	5.231860E-2
5.150000E-8	5.249675E-2
5.155000E-8	5.276055E-2
5.160000E-8	5.304149E-2
5.165000E-8	5.334640E-2
5.170000E-8	5.367530E-2
5.175000E-8	5.400419E-2
5.180000E-8	5.432967E-2
5.185000E-8	5.463458E-2
5.190000E-8	5.488468E-2
5.195000E-8	5.508681E-2
5.200000E-8	5.524784E-2
5.205000E-8	5.534034E-2
5.210000E-8	5.538830E-2
5.215000E-8	5.547053E-2
5.220000E-8	5.554590E-2
5.225000E-8	5.558016E-2
5.230000E-8	5.562470E-2
5.235000E-8	5.568294E-2
5.240000E-8	5.571035E-2
5.245000E-8	5.574803E-2
5.250000E-8	5.579942E-2
5.255000E-8	5.578572E-2
5.260000E-8	5.571035E-2
5.265000E-8	5.564868E-2
5.270000E-8	5.555618E-2
5.275000E-8	5.537460E-2
5.280000E-8	5.512793E-2
5.285000E-8	5.484357E-2
5.290000E-8	5.450439E-2
5.295000E-8	5.416522E-2
5.300000E-8	5.383975E-2
5.305000E-8	5.348001E-2
5.310000E-8	5.317510E-2
5.315000E-8	5.296611E-2
5.320000E-8	5.276398E-2
5.325000E-8	5.258240E-2
5.330000E-8	5.248990E-2
5.335000E-8	5.245906E-2
5.340000E-8	5.244536E-2
5.345000E-8	5.245564E-2
5.350000E-8	5.248647E-2
5.355000E-8	5.252073E-2
5.360000E-8	5.257897E-2
5.365000E-8	5.260638E-2
5.370000E-8	5.261666E-2
5.375000E-8	5.268518E-2
5.380000E-8	5.277768E-2
5.385000E-8	5.283250E-2
5.390000E-8	5.296611E-2
5.395000E-8	5.315797E-2
5.400000E-8	5.331557E-2
5.405000E-8	5.351770E-2
5.410000E-8	5.380206E-2
5.415000E-8	5.407271E-2
5.420000E-8	5.430226E-2
5.425000E-8	5.453523E-2
5.430000E-8	5.476134E-2
5.435000E-8	5.496348E-2
5.440000E-8	5.516561E-2
5.445000E-8	5.531636E-2
5.450000E-8	5.540543E-2
5.455000E-8	5.548766E-2
5.460000E-8	5.556303E-2
5.465000E-8	5.558359E-2
5.470000E-8	5.557673E-2
5.475000E-8	5.556303E-2
5.480000E-8	5.548080E-2
5.485000E-8	5.533349E-2
5.490000E-8	5.518274E-2
5.495000E-8	5.500116E-2
5.500000E-8	5.475106E-2
5.505000E-8	5.447698E-2
5.510000E-8	5.420290E-2
5.515000E-8	5.391169E-2
5.520000E-8	5.363076E-2
5.525000E-8	5.337723E-2
5.530000E-8	5.313056E-2
5.535000E-8	5.288732E-2
5.540000E-8	5.265435E-2
5.545000E-8	5.245221E-2
5.550000E-8	5.228776E-2
5.555000E-8	5.210961E-2
5.560000E-8	5.191433E-2
5.565000E-8	5.178071E-2
5.570000E-8	5.168821E-2
5.575000E-8	5.157173E-2
5.580000E-8	5.148950E-2
5.585000E-8	5.148608E-2
5.590000E-8	5.149978E-2
5.595000E-8	5.151006E-2
5.600000E-8	5.154089E-2
5.605000E-8	5.159571E-2
5.610000E-8	5.166423E-2
5.615000E-8	5.172932E-2
5.620000E-8	5.177044E-2
5.625000E-8	5.179784E-2
5.630000E-8	5.184923E-2
5.635000E-8	5.189377E-2
5.640000E-8	5.190405E-2
5.645000E-8	5.193146E-2
5.650000E-8	5.201711E-2
5.655000E-8	5.213017E-2
5.660000E-8	5.227406E-2
5.665000E-8	5.246249E-2
5.670000E-8	5.269888E-2
5.675000E-8	5.297639E-2
5.680000E-8	5.325047E-2
5.685000E-8	5.350400E-2
5.690000E-8	5.378150E-2
5.695000E-8	5.407271E-2
5.700000E-8	5.429541E-2
5.705000E-8	5.441532E-2
5.710000E-8	5.446328E-2
5.715000E-8	5.443245E-2
5.720000E-8	5.433652E-2
5.725000E-8	5.418577E-2
5.730000E-8	5.395966E-2
5.735000E-8	5.365817E-2
5.740000E-8	5.333955E-2
5.745000E-8	5.301750E-2
5.750000E-8	5.269203E-2
5.755000E-8	5.240767E-2
5.760000E-8	5.216785E-2
5.765000E-8	5.194174E-2
5.770000E-8	5.175673E-2
5.775000E-8	5.163340E-2
5.780000E-8	5.155117E-2
5.785000E-8	5.149636E-2
5.790000E-8	5.146552E-2
5.795000E-8	5.143469E-2
5.800000E-8	5.138330E-2
5.805000E-8	5.133876E-2
5.810000E-8	5.131135E-2
5.815000E-8	5.129422E-2
5.820000E-8	5.129422E-2
5.825000E-8	5.128737E-2
5.830000E-8	5.129422E-2
5.835000E-8	5.133876E-2
5.840000E-8	5.139357E-2
5.845000E-8	5.145524E-2
5.850000E-8	5.157515E-2
5.855000E-8	5.173960E-2
5.860000E-8	5.187664E-2
5.865000E-8	5.199998E-2
5.870000E-8	5.216785E-2
5.875000E-8	5.235971E-2
5.880000E-8	5.251045E-2
5.885000E-8	5.264749E-2
5.890000E-8	5.279139E-2
5.895000E-8	5.290787E-2
5.900000E-8	5.300723E-2
5.905000E-8	5.308945E-2
5.910000E-8	5.315112E-2
5.915000E-8	5.317510E-2
5.920000E-8	5.317510E-2
5.925000E-8	5.314769E-2
5.930000E-8	5.309630E-2
5.935000E-8	5.303463E-2
5.940000E-8	5.294898E-2
5.945000E-8	5.285306E-2
5.950000E-8	5.277083E-2
5.955000E-8	5.268518E-2
5.960000E-8	5.256527E-2
5.965000E-8	5.243851E-2
5.970000E-8	5.233230E-2
5.975000E-8	5.222952E-2
5.980000E-8	5.212332E-2
5.985000E-8	5.199998E-2
5.990000E-8	5.185951E-2
5.995000E-8	5.174303E-2
6.000000E-8	5.162312E-2
6.005000E-8	5.147237E-2
6.010000E-8	5.131135E-2
6.015000E-8	5.114690E-2
6.020000E-8	5.097218E-2
6.025000E-8	5.081801E-2
6.030000E-8	5.070495E-2
6.035000E-8	5.060217E-2
6.040000E-8	5.049253E-2
6.045000E-8	5.037605E-2
6.050000E-8	5.026984E-2
6.055000E-8	5.017392E-2
6.060000E-8	5.008141E-2
6.065000E-8	4.999919E-2
6.070000E-8	4.992039E-2
6.075000E-8	4.985187E-2
6.080000E-8	4.976965E-2
6.085000E-8	4.969085E-2
6.090000E-8	4.963603E-2
6.095000E-8	4.959835E-2
6.100000E-8	4.957436E-2
6.105000E-8	4.958807E-2
6.110000E-8	4.963946E-2
6.115000E-8	4.970113E-2
6.120000E-8	4.978335E-2
6.125000E-8	4.991354E-2
6.130000E-8	5.006086E-2
6.135000E-8	5.023216E-2
6.140000E-8	5.046513E-2
6.145000E-8	5.071180E-2
6.150000E-8	5.092421E-2
6.155000E-8	5.114690E-2
6.160000E-8	5.139357E-2
6.165000E-8	5.158201E-2
6.170000E-8	5.168821E-2
6.175000E-8	5.176016E-2
6.180000E-8	5.180470E-2
6.185000E-8	5.179784E-2
6.190000E-8	5.170534E-2
6.195000E-8	5.155460E-2
6.200000E-8	5.139015E-2
6.205000E-8	5.121885E-2
6.210000E-8	5.102357E-2
6.215000E-8	5.083171E-2
6.220000E-8	5.064670E-2
6.225000E-8	5.049596E-2
6.230000E-8	5.040346E-2
6.235000E-8	5.033836E-2
6.240000E-8	5.028697E-2
6.245000E-8	5.027327E-2
6.250000E-8	5.026984E-2
6.255000E-8	5.024929E-2
6.260000E-8	5.023558E-2
6.265000E-8	5.020818E-2
6.270000E-8	5.013966E-2
6.275000E-8	5.005401E-2
6.280000E-8	4.995808E-2
6.285000E-8	4.983131E-2
6.290000E-8	4.973196E-2
6.295000E-8	4.966687E-2
6.300000E-8	4.954353E-2
6.305000E-8	4.939621E-2
6.310000E-8	4.936195E-2
6.315000E-8	4.936538E-2
6.320000E-8	4.932084E-2
6.325000E-8	4.932084E-2
6.330000E-8	4.938936E-2
6.335000E-8	4.942019E-2
6.340000E-8	4.945445E-2
6.345000E-8	4.954010E-2
6.350000E-8	4.962575E-2
6.355000E-8	4.968400E-2
6.360000E-8	4.971483E-2
6.365000E-8	4.971140E-2
6.370000E-8	4.967714E-2
6.375000E-8	4.963603E-2
6.380000E-8	4.958807E-2
6.385000E-8	4.953668E-2
6.390000E-8	4.948871E-2
6.395000E-8	4.945103E-2
6.400000E-8	4.946131E-2
6.405000E-8	4.951612E-2
6.410000E-8	4.962233E-2
6.415000E-8	4.980733E-2
6.420000E-8	5.001632E-2
6.425000E-8	5.019790E-2
6.430000E-8	5.041374E-2
6.435000E-8	5.065356E-2
6.440000E-8	5.080088E-2
6.445000E-8	5.087282E-2
6.450000E-8	5.093106E-2
6.455000E-8	5.093106E-2
6.460000E-8	5.081801E-2
6.465000E-8	5.066383E-2
6.470000E-8	5.049253E-2
6.475000E-8	5.028012E-2
6.480000E-8	5.003687E-2
6.485000E-8	4.979705E-2
6.490000E-8	4.958122E-2
6.495000E-8	4.940649E-2
6.500000E-8	4.925232E-2
6.505000E-8	4.908444E-2
6.510000E-8	4.892685E-2
6.515000E-8	4.881722E-2
6.520000E-8	4.872471E-2
6.525000E-8	4.863221E-2
6.530000E-8	4.854999E-2
6.535000E-8	4.846091E-2
6.540000E-8	4.835813E-2
6.545000E-8	4.828276E-2
6.550000E-8	4.825535E-2
6.555000E-8	4.822794E-2
6.560000E-8	4.817998E-2
6.565000E-8	4.813201E-2
6.570000E-8	4.810118E-2
6.575000E-8	4.810118E-2
6.580000E-8	4.812859E-2
6.585000E-8	4.815942E-2
6.590000E-8	4.823137E-2
6.595000E-8	4.834785E-2
6.600000E-8	4.847461E-2
6.605000E-8	4.862536E-2
6.610000E-8	4.882064E-2
6.615000E-8	4.902278E-2
6.620000E-8	4.919408E-2
6.625000E-8	4.935852E-2
6.630000E-8	4.949557E-2
6.635000E-8	4.957094E-2
6.640000E-8	4.959835E-2
6.645000E-8	4.957779E-2
6.650000E-8	4.949899E-2
6.655000E-8	4.938936E-2
6.660000E-8	4.930713E-2
6.665000E-8	4.924889E-2
6.670000E-8	4.917009E-2
6.675000E-8	4.910500E-2
6.680000E-8	4.909815E-2
6.685000E-8	4.910500E-2
6.690000E-8	4.909815E-2
6.695000E-8	4.911870E-2
6.700000E-8	4.912556E-2
6.705000E-8	4.909130E-2
6.710000E-8	4.904676E-2
6.715000E-8	4.900907E-2
6.720000E-8	4.893027E-2
6.725000E-8	4.878981E-2
6.730000E-8	4.862193E-2
6.735000E-8	4.848489E-2
6.740000E-8	4.838211E-2
6.745000E-8	4.827933E-2
6.750000E-8	4.815942E-2
6.755000E-8	4.805664E-2
6.760000E-8	4.795386E-2
6.765000E-8	4.785451E-2
6.770000E-8	4.779284E-2
6.775000E-8	4.775173E-2
6.780000E-8	4.767293E-2
6.785000E-8	4.762154E-2
6.790000E-8	4.763524E-2
6.795000E-8	4.764895E-2
6.800000E-8	4.763524E-2
6.805000E-8	4.765237E-2
6.810000E-8	4.771747E-2
6.815000E-8	4.780654E-2
6.820000E-8	4.790590E-2
6.825000E-8	4.797442E-2
6.830000E-8	4.802581E-2
6.835000E-8	4.810461E-2
6.840000E-8	4.819026E-2
6.845000E-8	4.826563E-2
6.850000E-8	4.835813E-2
6.855000E-8	4.847461E-2
6.860000E-8	4.859452E-2
6.865000E-8	4.869731E-2
6.870000E-8	4.879323E-2
6.875000E-8	4.887546E-2
6.880000E-8	4.897824E-2
6.885000E-8	4.909130E-2
6.890000E-8	4.914611E-2
6.895000E-8	4.911528E-2
6.900000E-8	4.906731E-2
6.905000E-8	4.900907E-2
6.910000E-8	4.889259E-2
6.915000E-8	4.875555E-2
6.920000E-8	4.861165E-2
6.925000E-8	4.846434E-2
6.930000E-8	4.835470E-2
6.935000E-8	4.826563E-2
6.940000E-8	4.817313E-2
6.945000E-8	4.811831E-2
6.950000E-8	4.809090E-2
6.955000E-8	4.804979E-2
6.960000E-8	4.803266E-2
6.965000E-8	4.804294E-2
6.970000E-8	4.802581E-2
6.975000E-8	4.796414E-2
6.980000E-8	4.791275E-2
6.985000E-8	4.788534E-2
6.990000E-8	4.784423E-2
6.995000E-8	4.777913E-2
7.000000E-8	4.770034E-2
7.005000E-8	4.761811E-2
7.010000E-8	4.752561E-2
7.015000E-8	4.741255E-2
7.020000E-8	4.730292E-2
7.025000E-8	4.720699E-2
7.030000E-8	4.710078E-2
7.035000E-8	4.698773E-2
7.040000E-8	4.689522E-2
7.045000E-8	4.684383E-2
7.050000E-8	4.684726E-2
7.055000E-8	4.690550E-2
7.060000E-8	4.699800E-2
7.065000E-8	4.710764E-2
7.070000E-8	4.725153E-2
7.075000E-8	4.740227E-2
7.080000E-8	4.754617E-2
7.085000E-8	4.769691E-2
7.090000E-8	4.783052E-2
7.095000E-8	4.792988E-2
7.100000E-8	4.800183E-2
7.105000E-8	4.806007E-2
7.110000E-8	4.811146E-2
7.115000E-8	4.817998E-2
7.120000E-8	4.827591E-2
7.125000E-8	4.836841E-2
7.130000E-8	4.844378E-2
7.135000E-8	4.852258E-2
7.140000E-8	4.860480E-2
7.145000E-8	4.865619E-2
7.150000E-8	4.865619E-2
7.155000E-8	4.863221E-2
7.160000E-8	4.856369E-2
7.165000E-8	4.840267E-2
7.170000E-8	4.818683E-2
7.175000E-8	4.797099E-2
7.180000E-8	4.773460E-2
7.185000E-8	4.748450E-2
7.190000E-8	4.726866E-2
7.195000E-8	4.710078E-2
7.200000E-8	4.701856E-2
7.205000E-8	4.702541E-2
7.210000E-8	4.703569E-2
7.215000E-8	4.705282E-2
7.220000E-8	4.713162E-2
7.225000E-8	4.722755E-2
7.230000E-8	4.727894E-2
7.235000E-8	4.730977E-2
7.240000E-8	4.730977E-2
7.245000E-8	4.724468E-2
7.250000E-8	4.713847E-2
7.255000E-8	4.703912E-2
7.260000E-8	4.693634E-2
7.265000E-8	4.681985E-2
7.270000E-8	4.671022E-2
7.275000E-8	4.662800E-2
7.280000E-8	4.658003E-2
7.285000E-8	4.655262E-2
7.290000E-8	4.656633E-2
7.295000E-8	4.664513E-2
7.300000E-8	4.676161E-2
7.305000E-8	4.691235E-2
7.310000E-8	4.708708E-2
7.315000E-8	4.726523E-2
7.320000E-8	4.744339E-2
7.325000E-8	4.760441E-2
7.330000E-8	4.774830E-2
7.335000E-8	4.787849E-2
7.340000E-8	4.797784E-2
7.345000E-8	4.802923E-2
7.350000E-8	4.804979E-2
7.355000E-8	4.801553E-2
7.360000E-8	4.790590E-2
7.365000E-8	4.775173E-2
7.370000E-8	4.758385E-2
7.375000E-8	4.740227E-2
7.380000E-8	4.721042E-2
7.385000E-8	4.703569E-2
7.390000E-8	4.685754E-2
7.395000E-8	4.669994E-2
7.400000E-8	4.660744E-2
7.405000E-8	4.654920E-2
7.410000E-8	4.649781E-2
7.415000E-8	4.647725E-2
7.420000E-8	4.649438E-2
7.425000E-8	4.650466E-2
7.430000E-8	4.651836E-2
7.435000E-8	4.655605E-2
7.440000E-8	4.659716E-2
7.445000E-8	4.663142E-2
7.450000E-8	4.663485E-2
7.455000E-8	4.656975E-2
7.460000E-8	4.647382E-2
7.465000E-8	4.639845E-2
7.470000E-8	4.630595E-2
7.475000E-8	4.614493E-2
7.480000E-8	4.595992E-2
7.485000E-8	4.581260E-2
7.490000E-8	4.567899E-2
7.495000E-8	4.553167E-2
7.500000E-8	4.541176E-2
7.505000E-8	4.533982E-2
7.510000E-8	4.529528E-2
7.515000E-8	4.527815E-2
7.520000E-8	4.528500E-2
7.525000E-8	4.532269E-2
7.530000E-8	4.540148E-2
7.535000E-8	4.550426E-2
7.540000E-8	4.557621E-2
7.545000E-8	4.561732E-2
7.550000E-8	4.565843E-2
7.555000E-8	4.569269E-2
7.560000E-8	4.571325E-2
7.565000E-8	4.574066E-2
7.570000E-8	4.576807E-2
7.575000E-8	4.580575E-2
7.580000E-8	4.588112E-2
7.585000E-8	4.598391E-2
7.590000E-8	4.607641E-2
7.595000E-8	4.619632E-2
7.600000E-8	4.634706E-2
7.605000E-8	4.646697E-2
7.610000E-8	4.656975E-2
7.615000E-8	4.669994E-2
7.620000E-8	4.680272E-2
7.625000E-8	4.685069E-2
7.630000E-8	4.689522E-2
7.635000E-8	4.690893E-2
7.640000E-8	4.687809E-2
7.645000E-8	4.683013E-2
7.650000E-8	4.675476E-2
7.655000E-8	4.665198E-2
7.660000E-8	4.654577E-2
7.665000E-8	4.643956E-2
7.670000E-8	4.634021E-2
7.675000E-8	4.629567E-2
7.680000E-8	4.625456E-2
7.685000E-8	4.621345E-2
7.690000E-8	4.621345E-2
7.695000E-8	4.623058E-2
7.700000E-8	4.623743E-2
7.705000E-8	4.626484E-2
7.710000E-8	4.632308E-2
7.715000E-8	4.634021E-2
7.720000E-8	4.626826E-2
7.725000E-8	4.618261E-2
7.730000E-8	4.612437E-2
7.735000E-8	4.603530E-2
7.740000E-8	4.589483E-2
7.745000E-8	4.576807E-2
7.750000E-8	4.567899E-2
7.755000E-8	4.558649E-2
7.760000E-8	4.548028E-2
7.765000E-8	4.542204E-2
7.770000E-8	4.540148E-2
7.775000E-8	4.538435E-2
7.780000E-8	4.537408E-2
7.785000E-8	4.539463E-2
7.790000E-8	4.542547E-2
7.795000E-8	4.542547E-2
7.800000E-8	4.540834E-2
7.805000E-8	4.537750E-2
7.810000E-8	4.533982E-2
7.815000E-8	4.533296E-2
7.820000E-8	4.533982E-2
7.825000E-8	4.534667E-2
7.830000E-8	4.535695E-2
7.835000E-8	4.538435E-2
7.840000E-8	4.542547E-2
7.845000E-8	4.549056E-2
7.850000E-8	4.554195E-2
7.855000E-8	4.554880E-2
7.860000E-8	4.554880E-2
7.865000E-8	4.557964E-2
7.870000E-8	4.560362E-2
7.875000E-8	4.557278E-2
7.880000E-8	4.551454E-2
7.885000E-8	4.547686E-2
7.890000E-8	4.544945E-2
7.895000E-8	4.539121E-2
7.900000E-8	4.531241E-2
7.905000E-8	4.524046E-2
7.910000E-8	4.517879E-2
7.915000E-8	4.510685E-2
7.920000E-8	4.503833E-2
7.925000E-8	4.496638E-2
7.930000E-8	4.488416E-2
7.935000E-8	4.479508E-2
7.940000E-8	4.468887E-2
7.945000E-8	4.457924E-2
7.950000E-8	4.445248E-2
7.955000E-8	4.432914E-2
7.960000E-8	4.421266E-2
7.965000E-8	4.409960E-2
7.970000E-8	4.399682E-2
7.975000E-8	4.392145E-2
7.980000E-8	4.388719E-2
7.985000E-8	4.388376E-2
7.990000E-8	4.389747E-2
7.995000E-8	4.392487E-2
8.000000E-8	4.396256E-2
8.005000E-8	4.400710E-2
8.010000E-8	4.408590E-2
8.015000E-8	4.420238E-2
8.020000E-8	4.430173E-2
8.025000E-8	4.437711E-2
8.030000E-8	4.445933E-2
8.035000E-8	4.453128E-2
8.040000E-8	4.454498E-2
8.045000E-8	4.455183E-2
8.050000E-8	4.457239E-2
8.055000E-8	4.455869E-2
8.060000E-8	4.451757E-2
8.065000E-8	4.448331E-2
8.070000E-8	4.444220E-2
8.075000E-8	4.441137E-2
8.080000E-8	4.439766E-2
8.085000E-8	4.440109E-2
8.090000E-8	4.442507E-2
8.095000E-8	4.446618E-2
8.100000E-8	4.450729E-2
8.105000E-8	4.456211E-2
8.110000E-8	4.465119E-2
8.115000E-8	4.476082E-2
8.120000E-8	4.487730E-2
8.125000E-8	4.498008E-2
8.130000E-8	4.507259E-2
8.135000E-8	4.513768E-2
8.140000E-8	4.520277E-2
8.145000E-8	4.523018E-2
8.150000E-8	4.519592E-2
8.155000E-8	4.515481E-2
8.160000E-8	4.510685E-2
8.165000E-8	4.499379E-2
8.170000E-8	4.483277E-2
8.175000E-8	4.468202E-2
8.180000E-8	4.454156E-2
8.185000E-8	4.440451E-2
8.190000E-8	4.427775E-2
8.195000E-8	4.418868E-2
8.200000E-8	4.412701E-2
8.205000E-8	4.407904E-2
8.210000E-8	4.407562E-2
8.215000E-8	4.410645E-2
8.220000E-8	4.414071E-2
8.225000E-8	4.419210E-2
8.230000E-8	4.426747E-2
8.235000E-8	4.432914E-2
8.240000E-8	4.433257E-2
8.245000E-8	4.430173E-2
8.250000E-8	4.427090E-2
8.255000E-8	4.420923E-2
8.260000E-8	4.413043E-2
8.265000E-8	4.402080E-2
8.270000E-8	4.388719E-2
8.275000E-8	4.379811E-2
8.280000E-8	4.377755E-2
8.285000E-8	4.377413E-2
8.290000E-8	4.377755E-2
8.295000E-8	4.381867E-2
8.300000E-8	4.391117E-2
8.305000E-8	4.400367E-2
8.310000E-8	4.407904E-2
8.315000E-8	4.417155E-2
8.320000E-8	4.425034E-2
8.325000E-8	4.430173E-2
8.330000E-8	4.434285E-2
8.335000E-8	4.435312E-2
8.340000E-8	4.432572E-2
8.345000E-8	4.430173E-2
8.350000E-8	4.426405E-2
8.355000E-8	4.419895E-2
8.360000E-8	4.413043E-2
8.365000E-8	4.406191E-2
8.370000E-8	4.399339E-2
8.375000E-8	4.393173E-2
8.380000E-8	4.387691E-2
8.385000E-8	4.381867E-2
8.390000E-8	4.379126E-2
8.395000E-8	4.378441E-2
8.400000E-8	4.379126E-2
8.405000E-8	4.381867E-2
8.410000E-8	4.384265E-2
8.415000E-8	4.384265E-2
8.420000E-8	4.384265E-2
8.425000E-8	4.383580E-2
8.430000E-8	4.379468E-2
8.435000E-8	4.373302E-2
8.440000E-8	4.365764E-2
8.445000E-8	4.355486E-2
8.450000E-8	4.341440E-2
8.455000E-8	4.327051E-2
8.460000E-8	4.314032E-2
8.465000E-8	4.303068E-2
8.470000E-8	4.290735E-2
8.475000E-8	4.280799E-2
8.480000E-8	4.273605E-2
8.485000E-8	4.265725E-2
8.490000E-8	4.257503E-2
8.495000E-8	4.254419E-2
8.500000E-8	4.255104E-2
8.505000E-8	4.255447E-2
8.510000E-8	4.257160E-2
8.515000E-8	4.261956E-2
8.520000E-8	4.269836E-2
8.525000E-8	4.276688E-2
8.530000E-8	4.280457E-2
8.535000E-8	4.283540E-2
8.540000E-8	4.286624E-2
8.545000E-8	4.289022E-2
8.550000E-8	4.289707E-2
8.555000E-8	4.286281E-2
8.560000E-8	4.278059E-2
8.565000E-8	4.269151E-2
8.570000E-8	4.262642E-2
8.575000E-8	4.256475E-2
8.580000E-8	4.248938E-2
8.585000E-8	4.242428E-2
8.590000E-8	4.237974E-2
8.595000E-8	4.237289E-2
8.600000E-8	4.240372E-2
8.605000E-8	4.246539E-2
8.610000E-8	4.257503E-2
8.615000E-8	4.270179E-2
8.620000E-8	4.279086E-2
8.625000E-8	4.288337E-2
8.630000E-8	4.303068E-2
8.635000E-8	4.315402E-2
8.640000E-8	4.319513E-2
8.645000E-8	4.321912E-2
8.650000E-8	4.324995E-2
8.655000E-8	4.324652E-2
8.660000E-8	4.318143E-2
8.665000E-8	4.306152E-2
8.670000E-8	4.295531E-2
8.675000E-8	4.287309E-2
8.680000E-8	4.276003E-2
8.685000E-8	4.264355E-2
8.690000E-8	4.258873E-2
8.695000E-8	4.258188E-2
8.700000E-8	4.258530E-2
8.705000E-8	4.258530E-2
8.710000E-8	4.260243E-2
8.715000E-8	4.262642E-2
8.720000E-8	4.265382E-2
8.725000E-8	4.265382E-2
8.730000E-8	4.261271E-2
8.735000E-8	4.256132E-2
8.740000E-8	4.251678E-2
8.745000E-8	4.246539E-2
8.750000E-8	4.241400E-2
8.755000E-8	4.234206E-2
8.760000E-8	4.225983E-2
8.765000E-8	4.219474E-2
8.770000E-8	4.215705E-2
8.775000E-8	4.214335E-2
8.780000E-8	4.213307E-2
8.785000E-8	4.213992E-2
8.790000E-8	4.215363E-2
8.795000E-8	4.219131E-2
8.800000E-8	4.225983E-2
8.805000E-8	4.232835E-2
8.810000E-8	4.237974E-2
8.815000E-8	4.244141E-2
8.820000E-8	4.250993E-2
8.825000E-8	4.252021E-2
8.830000E-8	4.250651E-2
8.835000E-8	4.247567E-2
8.840000E-8	4.242428E-2
8.845000E-8	4.236261E-2
8.850000E-8	4.228724E-2
8.855000E-8	4.219816E-2
8.860000E-8	4.211937E-2
8.865000E-8	4.207140E-2
8.870000E-8	4.205085E-2
8.875000E-8	4.207483E-2
8.880000E-8	4.214335E-2
8.885000E-8	4.221187E-2
8.890000E-8	4.225298E-2
8.895000E-8	4.228039E-2
8.900000E-8	4.231807E-2
8.905000E-8	4.231807E-2
8.910000E-8	4.226668E-2
8.915000E-8	4.217761E-2
8.920000E-8	4.203372E-2
8.925000E-8	4.184871E-2
8.930000E-8	4.168426E-2
8.935000E-8	4.153694E-2
8.940000E-8	4.137592E-2
8.945000E-8	4.125601E-2
8.950000E-8	4.121833E-2
8.955000E-8	4.123888E-2
8.960000E-8	4.127657E-2
8.965000E-8	4.134509E-2
8.970000E-8	4.146157E-2
8.975000E-8	4.161917E-2
8.980000E-8	4.178362E-2
8.985000E-8	4.192408E-2
8.990000E-8	4.205427E-2
8.995000E-8	4.216733E-2
9.000000E-8	4.223242E-2
9.005000E-8	4.226668E-2
9.010000E-8	4.225298E-2
9.015000E-8	4.220159E-2
9.020000E-8	4.215705E-2
9.025000E-8	4.211594E-2
9.030000E-8	4.204399E-2
9.035000E-8	4.197547E-2
9.040000E-8	4.194464E-2
9.045000E-8	4.193094E-2
9.050000E-8	4.194464E-2
9.055000E-8	4.195834E-2
9.060000E-8	4.194121E-2
9.065000E-8	4.193094E-2
9.070000E-8	4.194464E-2
9.075000E-8	4.192751E-2
9.080000E-8	4.188297E-2
9.085000E-8	4.186242E-2
9.090000E-8	4.183501E-2
9.095000E-8	4.176991E-2
9.100000E-8	4.169454E-2
9.105000E-8	4.162259E-2
9.110000E-8	4.152324E-2
9.115000E-8	4.143074E-2
9.120000E-8	4.136222E-2
9.125000E-8	4.130055E-2
9.130000E-8	4.122860E-2
9.135000E-8	4.116008E-2
9.140000E-8	4.110869E-2
9.145000E-8	4.106073E-2
9.150000E-8	4.100934E-2
9.155000E-8	4.095795E-2
9.160000E-8	4.088943E-2
9.165000E-8	4.083461E-2
9.170000E-8	4.081406E-2
9.175000E-8	4.081748E-2
9.180000E-8	4.080720E-2
9.185000E-8	4.077637E-2
9.190000E-8	4.076267E-2
9.195000E-8	4.075924E-2
9.200000E-8	4.074211E-2
9.205000E-8	4.072841E-2
9.210000E-8	4.074211E-2
9.215000E-8	4.073526E-2
9.220000E-8	4.074211E-2
9.225000E-8	4.080035E-2
9.230000E-8	4.085174E-2
9.235000E-8	4.087230E-2
9.240000E-8	4.094767E-2
9.245000E-8	4.106758E-2
9.250000E-8	4.113953E-2
9.255000E-8	4.123546E-2
9.260000E-8	4.139990E-2
9.265000E-8	4.151296E-2
9.270000E-8	4.158491E-2
9.275000E-8	4.169454E-2
9.280000E-8	4.176649E-2
9.285000E-8	4.179732E-2
9.290000E-8	4.188640E-2
9.295000E-8	4.193779E-2
9.300000E-8	4.190695E-2
9.305000E-8	4.188297E-2
9.310000E-8	4.186584E-2
9.315000E-8	4.177334E-2
9.320000E-8	4.165000E-2
9.325000E-8	4.154380E-2
9.330000E-8	4.141018E-2
9.335000E-8	4.126286E-2
9.340000E-8	4.112925E-2
9.345000E-8	4.100591E-2
9.350000E-8	4.089285E-2
9.355000E-8	4.082776E-2
9.360000E-8	4.080378E-2
9.365000E-8	4.078665E-2
9.370000E-8	4.077980E-2
9.375000E-8	4.079350E-2
9.380000E-8	4.082433E-2
9.385000E-8	4.088258E-2
9.390000E-8	4.090998E-2
9.395000E-8	4.090656E-2
9.400000E-8	4.092026E-2
9.405000E-8	4.094424E-2
9.410000E-8	4.090998E-2
9.415000E-8	4.084146E-2
9.420000E-8	4.078665E-2
9.425000E-8	4.073526E-2
9.430000E-8	4.068729E-2
9.435000E-8	4.067016E-2
9.440000E-8	4.063590E-2
9.445000E-8	4.057766E-2
9.450000E-8	4.058109E-2
9.455000E-8	4.063933E-2
9.460000E-8	4.065989E-2
9.465000E-8	4.067359E-2
9.470000E-8	4.074211E-2
9.475000E-8	4.081406E-2
9.480000E-8	4.085174E-2
9.485000E-8	4.088258E-2
9.490000E-8	4.092711E-2
9.495000E-8	4.095452E-2
9.500000E-8	4.094767E-2
9.505000E-8	4.089628E-2
9.510000E-8	4.082776E-2
9.515000E-8	4.075581E-2
9.520000E-8	4.067702E-2
9.525000E-8	4.057766E-2
9.530000E-8	4.048516E-2
9.535000E-8	4.042007E-2
9.540000E-8	4.034812E-2
9.545000E-8	4.026932E-2
9.550000E-8	4.022478E-2
9.555000E-8	4.022136E-2
9.560000E-8	4.024534E-2
9.565000E-8	4.029330E-2
9.570000E-8	4.036525E-2
9.575000E-8	4.043034E-2
9.580000E-8	4.047831E-2
9.585000E-8	4.052285E-2
9.590000E-8	4.059137E-2
9.595000E-8	4.062905E-2
9.600000E-8	4.059137E-2
9.605000E-8	4.053998E-2
9.610000E-8	4.052285E-2
9.615000E-8	4.048859E-2
9.620000E-8	4.040979E-2
9.625000E-8	4.031043E-2
9.630000E-8	4.020423E-2
9.635000E-8	4.010487E-2
9.640000E-8	4.003293E-2
9.645000E-8	4.000209E-2
9.650000E-8	3.995070E-2
9.655000E-8	3.990616E-2
9.660000E-8	3.993357E-2
9.665000E-8	3.998154E-2
9.670000E-8	4.000209E-2
9.675000E-8	4.002950E-2
9.680000E-8	4.008432E-2
9.685000E-8	4.011858E-2
9.690000E-8	4.015626E-2
9.695000E-8	4.022821E-2
9.700000E-8	4.026589E-2
9.705000E-8	4.025562E-2
9.710000E-8	4.028302E-2
9.715000E-8	4.032756E-2
9.720000E-8	4.033099E-2
9.725000E-8	4.034469E-2
9.730000E-8	4.034469E-2
9.735000E-8	4.030358E-2
9.740000E-8	4.028645E-2
9.745000E-8	4.027275E-2
9.750000E-8	4.021450E-2
9.755000E-8	4.016654E-2
9.760000E-8	4.016997E-2
9.765000E-8	4.018710E-2
9.770000E-8	4.022136E-2
9.775000E-8	4.030015E-2
9.780000E-8	4.036525E-2
9.785000E-8	4.041321E-2
9.790000E-8	4.049201E-2
9.795000E-8	4.060507E-2
9.800000E-8	4.069415E-2
9.805000E-8	4.072841E-2
9.810000E-8	4.069415E-2
9.815000E-8	4.060850E-2
9.820000E-8	4.049544E-2
9.825000E-8	4.038581E-2
9.830000E-8	4.026247E-2
9.835000E-8	4.012885E-2
9.840000E-8	4.003978E-2
9.845000E-8	4.000209E-2
9.850000E-8	3.997468E-2
9.855000E-8	3.999524E-2
9.860000E-8	4.010487E-2
9.865000E-8	4.022821E-2
9.870000E-8	4.031386E-2
9.875000E-8	4.038238E-2
9.880000E-8	4.045433E-2
9.885000E-8	4.048516E-2
9.890000E-8	4.046803E-2
9.895000E-8	4.042349E-2
9.900000E-8	4.034469E-2
9.905000E-8	4.020423E-2
9.910000E-8	4.010145E-2
9.915000E-8	4.006719E-2
9.920000E-8	4.000552E-2
9.925000E-8	3.989589E-2
9.930000E-8	3.983764E-2
9.935000E-8	3.985135E-2
9.940000E-8	3.983422E-2
9.945000E-8	3.978968E-2
9.950000E-8	3.976570E-2
9.955000E-8	3.970403E-2
9.960000E-8	3.959782E-2
9.965000E-8	3.950875E-2
9.970000E-8	3.942995E-2
9.975000E-8	3.933402E-2
9.980000E-8	3.923467E-2
9.985000E-8	3.914902E-2
9.990000E-8	3.908392E-2
9.995000E-8	3.904624E-2
1.000000E-7	3.901540E-2
1.000500E-7	3.900512E-2
1.001000E-7	3.902568E-2
1.001500E-7	3.902225E-2
1.002000E-7	3.897429E-2
1.002500E-7	3.895031E-2
1.003000E-7	3.896058E-2
1.003500E-7	3.895716E-2
1.004000E-7	3.891947E-2
1.004500E-7	3.886808E-2
1.005000E-7	3.880299E-2
1.005500E-7	3.874475E-2
1.006000E-7	3.871391E-2
1.006500E-7	3.868308E-2
1.007000E-7	3.865910E-2
1.007500E-7	3.865567E-2
1.008000E-7	3.865910E-2
1.008500E-7	3.870021E-2
1.009000E-7	3.876873E-2
1.009500E-7	3.885438E-2
1.010000E-7	3.896401E-2
1.010500E-7	3.907707E-2
1.011000E-7	3.919698E-2
1.011500E-7	3.933402E-2
1.012000E-7	3.944708E-2
1.012500E-7	3.951560E-2
1.013000E-7	3.958412E-2
1.013500E-7	3.964921E-2
1.014000E-7	3.965606E-2
1.014500E-7	3.959782E-2
1.015000E-7	3.952245E-2
1.015500E-7	3.941282E-2
1.016000E-7	3.928263E-2
1.016500E-7	3.917985E-2
1.017000E-7	3.908735E-2
1.017500E-7	3.899827E-2
1.018000E-7	3.898457E-2
1.018500E-7	3.901883E-2
1.019000E-7	3.902568E-2
1.019500E-7	3.905309E-2
1.020000E-7	3.913531E-2
1.020500E-7	3.922439E-2
1.021000E-7	3.932032E-2
1.021500E-7	3.943337E-2
1.022000E-7	3.951902E-2
1.022500E-7	3.958754E-2
1.023000E-7	3.966977E-2
1.023500E-7	3.969032E-2
1.024000E-7	3.965264E-2
1.024500E-7	3.961838E-2
1.025000E-7	3.955328E-2
1.025500E-7	3.944365E-2
1.026000E-7	3.935458E-2
1.026500E-7	3.929291E-2
1.027000E-7	3.919698E-2
1.027500E-7	3.912846E-2
1.028000E-7	3.911818E-2
1.028500E-7	3.907364E-2
1.029000E-7	3.904966E-2
1.029500E-7	3.910790E-2
1.030000E-7	3.913531E-2
1.030500E-7	3.911476E-2
1.031000E-7	3.917642E-2
1.031500E-7	3.923467E-2
1.032000E-7	3.922781E-2
1.032500E-7	3.924152E-2
1.033000E-7	3.928948E-2
1.033500E-7	3.927578E-2
1.034000E-7	3.921754E-2
1.034500E-7	3.915244E-2
1.035000E-7	3.907022E-2
1.035500E-7	3.901883E-2
1.036000E-7	3.897429E-2
1.036500E-7	3.886808E-2
1.037000E-7	3.876188E-2
1.037500E-7	3.872419E-2
1.038000E-7	3.870021E-2
1.038500E-7	3.866252E-2
1.039000E-7	3.866937E-2
1.039500E-7	3.868650E-2
1.040000E-7	3.866937E-2
1.040500E-7	3.866937E-2
1.041000E-7	3.867965E-2
1.041500E-7	3.867280E-2
1.042000E-7	3.865910E-2
1.042500E-7	3.864539E-2
1.043000E-7	3.862484E-2
1.043500E-7	3.859400E-2
1.044000E-7	3.856317E-2
1.044500E-7	3.853919E-2
1.045000E-7	3.852206E-2
1.045500E-7	3.851178E-2
1.046000E-7	3.848780E-2
1.046500E-7	3.845011E-2
1.047000E-7	3.840215E-2
1.047500E-7	3.835418E-2
1.048000E-7	3.826853E-2
1.048500E-7	3.817260E-2
1.049000E-7	3.810751E-2
1.049500E-7	3.806297E-2
1.050000E-7	3.803899E-2
1.050500E-7	3.800130E-2
1.051000E-7	3.796019E-2
1.051500E-7	3.796362E-2
1.052000E-7	3.799788E-2
1.052500E-7	3.799788E-2
1.053000E-7	3.799445E-2
1.053500E-7	3.801158E-2
1.054000E-7	3.802528E-2
1.054500E-7	3.802186E-2
1.055000E-7	3.803556E-2
1.055500E-7	3.805954E-2
1.056000E-7	3.804241E-2
1.056500E-7	3.800473E-2
1.057000E-7	3.799445E-2
1.057500E-7	3.796704E-2
1.058000E-7	3.789510E-2
1.058500E-7	3.783000E-2
1.059000E-7	3.781287E-2
1.059500E-7	3.780259E-2
1.060000E-7	3.774778E-2
1.060500E-7	3.767926E-2
1.061000E-7	3.765528E-2
1.061500E-7	3.762444E-2
1.062000E-7	3.754222E-2
1.062500E-7	3.747712E-2
1.063000E-7	3.745314E-2
1.063500E-7	3.742231E-2
1.064000E-7	3.738462E-2
1.064500E-7	3.737092E-2
1.065000E-7	3.737777E-2
1.065500E-7	3.741545E-2
1.066000E-7	3.746684E-2
1.066500E-7	3.749768E-2
1.067000E-7	3.750110E-2
1.067500E-7	3.752851E-2
1.068000E-7	3.757648E-2
1.068500E-7	3.761416E-2
1.069000E-7	3.763472E-2
1.069500E-7	3.764500E-2
1.070000E-7	3.762101E-2
1.070500E-7	3.757990E-2
1.071000E-7	3.758675E-2
1.071500E-7	3.760046E-2
1.072000E-7	3.757990E-2
1.072500E-7	3.756962E-2
1.073000E-7	3.760388E-2
1.073500E-7	3.760731E-2
1.074000E-7	3.760046E-2
1.074500E-7	3.764500E-2
1.075000E-7	3.767583E-2
1.075500E-7	3.766213E-2
1.076000E-7	3.765870E-2
1.076500E-7	3.762444E-2
1.077000E-7	3.755935E-2
1.077500E-7	3.749768E-2
1.078000E-7	3.739147E-2
1.078500E-7	3.725101E-2
1.079000E-7	3.717221E-2
1.079500E-7	3.709684E-2
1.080000E-7	3.697350E-2
1.080500E-7	3.687414E-2
1.081000E-7	3.681590E-2
1.081500E-7	3.675766E-2
1.082000E-7	3.673368E-2
1.082500E-7	3.676109E-2
1.083000E-7	3.677136E-2
1.083500E-7	3.680562E-2
1.084000E-7	3.690155E-2
1.084500E-7	3.700091E-2
1.085000E-7	3.707285E-2
1.085500E-7	3.717563E-2
1.086000E-7	3.728527E-2
1.086500E-7	3.739490E-2
1.087000E-7	3.751138E-2
1.087500E-7	3.759703E-2
1.088000E-7	3.762444E-2
1.088500E-7	3.761416E-2
1.089000E-7	3.760046E-2
1.089500E-7	3.758333E-2
1.090000E-7	3.752851E-2
1.090500E-7	3.744286E-2
1.091000E-7	3.736064E-2
1.091500E-7	3.729554E-2
1.092000E-7	3.720989E-2
1.092500E-7	3.714823E-2
1.093000E-7	3.713452E-2
1.093500E-7	3.712424E-2
1.094000E-7	3.711054E-2
1.094500E-7	3.712082E-2
1.095000E-7	3.714480E-2
1.095500E-7	3.714480E-2
1.096000E-7	3.712082E-2
1.096500E-7	3.709684E-2
1.097000E-7	3.706943E-2
1.097500E-7	3.703517E-2
1.098000E-7	3.702146E-2
1.098500E-7	3.698378E-2
1.099000E-7	3.689127E-2
1.099500E-7	3.681933E-2
1.100000E-7	3.678164E-2
1.100500E-7	3.673710E-2
1.101000E-7	3.668914E-2
1.101500E-7	3.664460E-2
1.102000E-7	3.658293E-2
1.102500E-7	3.653154E-2
1.103000E-7	3.648015E-2
1.103500E-7	3.642191E-2
1.104000E-7	3.639108E-2
1.104500E-7	3.638423E-2
1.105000E-7	3.637052E-2
1.105500E-7	3.638765E-2
1.106000E-7	3.644247E-2
1.106500E-7	3.650414E-2
1.107000E-7	3.657951E-2
1.107500E-7	3.668571E-2
1.108000E-7	3.676794E-2
1.108500E-7	3.684331E-2
1.109000E-7	3.694267E-2
1.109500E-7	3.701461E-2
1.110000E-7	3.702146E-2
1.110500E-7	3.704202E-2
1.111000E-7	3.704545E-2
1.111500E-7	3.698378E-2
1.112000E-7	3.689813E-2
1.112500E-7	3.681248E-2
1.113000E-7	3.672683E-2
1.113500E-7	3.667544E-2
1.114000E-7	3.664118E-2
1.114500E-7	3.657951E-2
1.115000E-7	3.654182E-2
1.115500E-7	3.653154E-2
1.116000E-7	3.650414E-2
1.116500E-7	3.650756E-2
1.117000E-7	3.656580E-2
1.117500E-7	3.660692E-2
1.118000E-7	3.663090E-2
1.118500E-7	3.669942E-2
1.119000E-7	3.676794E-2
1.119500E-7	3.679535E-2
1.120000E-7	3.682961E-2
1.120500E-7	3.688100E-2
1.121000E-7	3.688442E-2
1.121500E-7	3.685701E-2
1.122000E-7	3.682961E-2
1.122500E-7	3.679877E-2
1.123000E-7	3.676451E-2
1.123500E-7	3.675081E-2
1.124000E-7	3.673710E-2
1.124500E-7	3.671997E-2
1.125000E-7	3.669599E-2
1.125500E-7	3.665488E-2
1.126000E-7	3.662062E-2
1.126500E-7	3.660692E-2
1.127000E-7	3.658979E-2
1.127500E-7	3.656580E-2
1.128000E-7	3.650071E-2
1.128500E-7	3.642191E-2
1.129000E-7	3.634997E-2
1.129500E-7	3.628487E-2
1.130000E-7	3.620265E-2
1.130500E-7	3.611700E-2
1.131000E-7	3.602792E-2
1.131500E-7	3.592514E-2
1.132000E-7	3.583606E-2
1.132500E-7	3.578467E-2
1.133000E-7	3.573671E-2
1.133500E-7	3.569560E-2
1.134000E-7	3.570930E-2
1.134500E-7	3.575041E-2
1.135000E-7	3.581551E-2
1.135500E-7	3.588403E-2
1.136000E-7	3.593199E-2
1.136500E-7	3.596625E-2
1.137000E-7	3.603135E-2
1.137500E-7	3.609301E-2
1.138000E-7	3.611014E-2
1.138500E-7	3.610329E-2
1.139000E-7	3.607246E-2
1.139500E-7	3.602792E-2
1.140000E-7	3.598338E-2
1.140500E-7	3.594570E-2
1.141000E-7	3.589773E-2
1.141500E-7	3.587375E-2
1.142000E-7	3.586347E-2
1.142500E-7	3.584977E-2
1.143000E-7	3.586347E-2
1.143500E-7	3.590801E-2
1.144000E-7	3.592171E-2
1.144500E-7	3.593542E-2
1.145000E-7	3.598681E-2
1.145500E-7	3.602792E-2
1.146000E-7	3.604162E-2
1.146500E-7	3.605190E-2
1.147000E-7	3.607246E-2
1.147500E-7	3.607931E-2
1.148000E-7	3.608959E-2
1.148500E-7	3.612727E-2
1.149000E-7	3.618209E-2
1.149500E-7	3.621292E-2
1.150000E-7	3.623348E-2
1.150500E-7	3.624376E-2
1.151000E-7	3.625061E-2
1.151500E-7	3.625061E-2
1.152000E-7	3.620950E-2
1.152500E-7	3.613413E-2
1.153000E-7	3.606561E-2
1.153500E-7	3.599709E-2
1.154000E-7	3.590458E-2
1.154500E-7	3.579838E-2
1.155000E-7	3.572643E-2
1.155500E-7	3.569902E-2
1.156000E-7	3.571615E-2
1.156500E-7	3.575041E-2
1.157000E-7	3.577782E-2
1.157500E-7	3.580523E-2
1.158000E-7	3.583949E-2
1.158500E-7	3.585319E-2
1.159000E-7	3.583606E-2
1.159500E-7	3.582236E-2
1.160000E-7	3.580180E-2
1.160500E-7	3.575384E-2
1.161000E-7	3.570588E-2
1.161500E-7	3.566476E-2
1.162000E-7	3.562023E-2
1.162500E-7	3.558939E-2
1.163000E-7	3.557569E-2
1.163500E-7	3.555856E-2
1.164000E-7	3.554828E-2
1.164500E-7	3.557911E-2
1.165000E-7	3.560310E-2
1.165500E-7	3.559624E-2
1.166000E-7	3.560995E-2
1.166500E-7	3.563393E-2
1.167000E-7	3.563393E-2
1.167500E-7	3.564421E-2
1.168000E-7	3.565106E-2
1.168500E-7	3.563393E-2
1.169000E-7	3.564763E-2
1.169500E-7	3.566134E-2
1.170000E-7	3.561680E-2
1.170500E-7	3.557226E-2
1.171000E-7	3.556884E-2
1.171500E-7	3.554828E-2
1.172000E-7	3.552087E-2
1.172500E-7	3.550374E-2
1.173000E-7	3.546605E-2
1.173500E-7	3.543179E-2
1.174000E-7	3.539753E-2
1.174500E-7	3.532559E-2
1.175000E-7	3.524336E-2
1.175500E-7	3.519883E-2
1.176000E-7	3.515086E-2
1.176500E-7	3.510290E-2
1.177000E-7	3.507892E-2
1.177500E-7	3.504466E-2
1.178000E-7	3.503095E-2
1.178500E-7	3.507206E-2
1.179000E-7	3.513031E-2
1.179500E-7	3.516799E-2
1.180000E-7	3.521253E-2
1.180500E-7	3.528105E-2
1.181000E-7	3.536327E-2
1.181500E-7	3.543179E-2
1.182000E-7	3.545920E-2
1.182500E-7	3.547291E-2
1.183000E-7	3.551402E-2
1.183500E-7	3.554485E-2
1.184000E-7	3.550374E-2
1.184500E-7	3.544892E-2
1.185000E-7	3.543865E-2
1.185500E-7	3.544207E-2
1.186000E-7	3.544892E-2
1.186500E-7	3.547976E-2
1.187000E-7	3.549689E-2
1.187500E-7	3.550374E-2
1.188000E-7	3.555856E-2
1.188500E-7	3.560652E-2
1.189000E-7	3.560652E-2
1.189500E-7	3.562708E-2
1.190000E-7	3.565449E-2
1.190500E-7	3.562365E-2
1.191000E-7	3.556198E-2
1.191500E-7	3.550374E-2
1.192000E-7	3.539753E-2
1.192500E-7	3.527077E-2
1.193000E-7	3.516799E-2
1.193500E-7	3.507892E-2
1.194000E-7	3.501382E-2
1.194500E-7	3.493160E-2
1.195000E-7	3.480826E-2
1.195500E-7	3.472261E-2
1.196000E-7	3.470891E-2
1.196500E-7	3.469520E-2
1.197000E-7	3.467807E-2
1.197500E-7	3.468835E-2
1.198000E-7	3.467465E-2
1.198500E-7	3.464381E-2
1.199000E-7	3.466437E-2
1.199500E-7	3.469520E-2
1.200000E-7	3.467465E-2
1.200500E-7	3.465066E-2
1.201000E-7	3.463696E-2
1.201500E-7	3.457872E-2
1.202000E-7	3.448279E-2
1.202500E-7	3.441770E-2
1.203000E-7	3.436973E-2
1.203500E-7	3.431149E-2
1.204000E-7	3.425325E-2
1.204500E-7	3.418473E-2
1.205000E-7	3.409908E-2
1.205500E-7	3.404083E-2
1.206000E-7	3.403398E-2
1.206500E-7	3.401685E-2
1.207000E-7	3.398259E-2
1.207500E-7	3.398602E-2
1.208000E-7	3.402713E-2
1.208500E-7	3.405454E-2
1.209000E-7	3.408880E-2
1.209500E-7	3.415389E-2
1.210000E-7	3.422927E-2
1.210500E-7	3.429436E-2
1.211000E-7	3.436973E-2
1.211500E-7	3.446909E-2
1.212000E-7	3.456844E-2
1.212500E-7	3.465752E-2
1.213000E-7	3.472946E-2
1.213500E-7	3.478085E-2
1.214000E-7	3.482539E-2
1.214500E-7	3.488363E-2
1.215000E-7	3.490762E-2
1.215500E-7	3.485622E-2
1.216000E-7	3.478428E-2
1.216500E-7	3.473974E-2
1.217000E-7	3.469863E-2
1.217500E-7	3.461640E-2
1.218000E-7	3.450677E-2
1.218500E-7	3.439371E-2
1.219000E-7	3.430464E-2
1.219500E-7	3.422927E-2
1.220000E-7	3.413334E-2
1.220500E-7	3.405796E-2
1.221000E-7	3.403056E-2
1.221500E-7	3.399972E-2
1.222000E-7	3.392092E-2
1.222500E-7	3.386953E-2
1.223000E-7	3.385583E-2
1.223500E-7	3.383527E-2
1.224000E-7	3.379416E-2
1.224500E-7	3.376675E-2
1.225000E-7	3.372907E-2
1.225500E-7	3.369823E-2
1.226000E-7	3.370509E-2
1.226500E-7	3.370851E-2
1.227000E-7	3.370851E-2
1.227500E-7	3.376675E-2
1.228000E-7	3.385926E-2
1.228500E-7	3.394148E-2
1.229000E-7	3.403398E-2
1.229500E-7	3.417102E-2
1.230000E-7	3.429093E-2
1.230500E-7	3.437316E-2
1.231000E-7	3.443483E-2
1.231500E-7	3.443825E-2
1.232000E-7	3.439371E-2
1.232500E-7	3.433205E-2
1.233000E-7	3.424640E-2
1.233500E-7	3.414019E-2
1.234000E-7	3.402028E-2
1.234500E-7	3.392435E-2
1.235000E-7	3.385583E-2
1.235500E-7	3.381472E-2
1.236000E-7	3.379759E-2
1.236500E-7	3.385583E-2
1.237000E-7	3.395518E-2
1.237500E-7	3.404426E-2
1.238000E-7	3.412991E-2
1.238500E-7	3.422927E-2
1.239000E-7	3.430464E-2
1.239500E-7	3.433890E-2
1.240000E-7	3.432519E-2
1.240500E-7	3.428066E-2
1.241000E-7	3.424982E-2
1.241500E-7	3.421214E-2
1.242000E-7	3.415047E-2
1.242500E-7	3.410593E-2
1.243000E-7	3.406824E-2
1.243500E-7	3.402028E-2
1.244000E-7	3.399972E-2
1.244500E-7	3.403056E-2
1.245000E-7	3.407167E-2
1.245500E-7	3.410593E-2
1.246000E-7	3.415047E-2
1.246500E-7	3.420871E-2
1.247000E-7	3.423612E-2
1.247500E-7	3.422927E-2
1.248000E-7	3.421214E-2
1.248500E-7	3.417102E-2
1.249000E-7	3.408880E-2
1.249500E-7	3.398944E-2
1.250000E-7	3.389694E-2
1.250500E-7	3.378731E-2
1.251000E-7	3.367768E-2
1.251500E-7	3.359203E-2
1.252000E-7	3.354064E-2
1.252500E-7	3.352693E-2
1.253000E-7	3.355092E-2
1.253500E-7	3.359203E-2
1.254000E-7	3.366055E-2
1.254500E-7	3.375648E-2
1.255000E-7	3.385240E-2
1.255500E-7	3.392778E-2
1.256000E-7	3.395518E-2
1.256500E-7	3.394148E-2
1.257000E-7	3.392435E-2
1.257500E-7	3.390379E-2
1.258000E-7	3.382842E-2
1.258500E-7	3.372564E-2
1.259000E-7	3.365712E-2
1.259500E-7	3.358518E-2
1.260000E-7	3.349610E-2
1.260500E-7	3.344128E-2
1.261000E-7	3.343786E-2
1.261500E-7	3.345841E-2
1.262000E-7	3.349610E-2
1.262500E-7	3.352008E-2
1.263000E-7	3.353036E-2
1.263500E-7	3.356805E-2
1.264000E-7	3.361944E-2
1.264500E-7	3.363999E-2
1.265000E-7	3.363314E-2
1.265500E-7	3.358518E-2
1.266000E-7	3.349610E-2
1.266500E-7	3.339674E-2
1.267000E-7	3.330767E-2
1.267500E-7	3.322544E-2
1.268000E-7	3.315007E-2
1.268500E-7	3.307813E-2
1.269000E-7	3.301646E-2
1.269500E-7	3.297192E-2
1.270000E-7	3.293081E-2
1.270500E-7	3.285201E-2
1.271000E-7	3.281090E-2
1.271500E-7	3.284516E-2
1.272000E-7	3.287257E-2
1.272500E-7	3.284858E-2
1.273000E-7	3.285201E-2
1.273500E-7	3.287257E-2
1.274000E-7	3.283831E-2
1.274500E-7	3.279719E-2
1.275000E-7	3.278691E-2
1.275500E-7	3.279034E-2
1.276000E-7	3.279719E-2
1.276500E-7	3.283145E-2
1.277000E-7	3.287257E-2
1.277500E-7	3.293423E-2
1.278000E-7	3.304387E-2
1.278500E-7	3.317063E-2
1.279000E-7	3.326656E-2
1.279500E-7	3.333165E-2
1.280000E-7	3.337961E-2
1.280500E-7	3.339332E-2
1.281000E-7	3.335906E-2
1.281500E-7	3.327341E-2
1.282000E-7	3.317063E-2
1.282500E-7	3.307127E-2
1.283000E-7	3.294109E-2
1.283500E-7	3.278006E-2
1.284000E-7	3.266358E-2
1.284500E-7	3.260191E-2
1.285000E-7	3.255737E-2
1.285500E-7	3.253339E-2
1.286000E-7	3.254367E-2
1.286500E-7	3.258135E-2
1.287000E-7	3.268413E-2
1.287500E-7	3.284858E-2
1.288000E-7	3.299248E-2
1.288500E-7	3.312266E-2
1.289000E-7	3.325285E-2
1.289500E-7	3.333508E-2
1.290000E-7	3.334193E-2
1.290500E-7	3.329739E-2
1.291000E-7	3.320489E-2
1.291500E-7	3.308155E-2
1.292000E-7	3.295136E-2
1.292500E-7	3.280062E-2
1.293000E-7	3.262932E-2
1.293500E-7	3.248200E-2
1.294000E-7	3.239978E-2
1.294500E-7	3.235524E-2
1.295000E-7	3.234839E-2
1.295500E-7	3.241691E-2
1.296000E-7	3.253339E-2
1.296500E-7	3.266015E-2
1.297000E-7	3.281090E-2
1.297500E-7	3.296507E-2
1.298000E-7	3.304387E-2
1.298500E-7	3.308155E-2
1.299000E-7	3.312952E-2
1.299500E-7	3.313294E-2
1.300000E-7	3.305414E-2
1.300500E-7	3.296164E-2
1.301000E-7	3.285886E-2
1.301500E-7	3.272182E-2
1.302000E-7	3.258478E-2
1.302500E-7	3.247515E-2
1.303000E-7	3.237922E-2
1.303500E-7	3.229700E-2
1.304000E-7	3.221477E-2
1.304500E-7	3.214968E-2
1.305000E-7	3.213255E-2
1.305500E-7	3.211884E-2
1.306000E-7	3.208801E-2
1.306500E-7	3.210514E-2
1.307000E-7	3.215996E-2
1.307500E-7	3.214625E-2
1.308000E-7	3.211884E-2
1.308500E-7	3.217366E-2
1.309000E-7	3.223533E-2
1.309500E-7	3.224218E-2
1.310000E-7	3.225246E-2
1.310500E-7	3.227644E-2
1.311000E-7	3.227301E-2
1.311500E-7	3.227644E-2
1.312000E-7	3.229357E-2
1.312500E-7	3.227644E-2
1.313000E-7	3.225588E-2
1.313500E-7	3.228672E-2
1.314000E-7	3.228672E-2
1.314500E-7	3.222848E-2
1.315000E-7	3.220107E-2
1.315500E-7	3.219079E-2
1.316000E-7	3.213597E-2
1.316500E-7	3.207430E-2
1.317000E-7	3.206060E-2
1.317500E-7	3.204690E-2
1.318000E-7	3.201949E-2
1.318500E-7	3.200578E-2
1.319000E-7	3.202291E-2
1.319500E-7	3.206403E-2
1.320000E-7	3.211884E-2
1.320500E-7	3.213940E-2
1.321000E-7	3.217023E-2
1.321500E-7	3.226959E-2
1.322000E-7	3.236209E-2
1.322500E-7	3.236552E-2
1.323000E-7	3.235866E-2
1.323500E-7	3.239635E-2
1.324000E-7	3.241005E-2
1.324500E-7	3.235181E-2
1.325000E-7	3.227987E-2
1.325500E-7	3.221135E-2
1.326000E-7	3.212570E-2
1.326500E-7	3.202977E-2
1.327000E-7	3.193726E-2
1.327500E-7	3.183448E-2
1.328000E-7	3.172485E-2
1.328500E-7	3.164948E-2
1.329000E-7	3.161865E-2
1.329500E-7	3.160152E-2
1.330000E-7	3.161522E-2
1.330500E-7	3.166318E-2
1.331000E-7	3.172485E-2
1.331500E-7	3.178995E-2
1.332000E-7	3.187560E-2
1.332500E-7	3.195097E-2
1.333000E-7	3.200578E-2
1.333500E-7	3.204004E-2
1.334000E-7	3.204004E-2
1.334500E-7	3.200921E-2
1.335000E-7	3.199551E-2
1.335500E-7	3.199551E-2
1.336000E-7	3.196125E-2
1.336500E-7	3.195097E-2
1.337000E-7	3.200236E-2
1.337500E-7	3.206403E-2
1.338000E-7	3.212227E-2
1.338500E-7	3.222848E-2
1.339000E-7	3.235866E-2
1.339500E-7	3.248885E-2
1.340000E-7	3.262932E-2
1.340500E-7	3.274238E-2
1.341000E-7	3.279719E-2
1.341500E-7	3.282803E-2
1.342000E-7	3.283488E-2
1.342500E-7	3.279377E-2
1.343000E-7	3.271154E-2
1.343500E-7	3.259848E-2
1.344000E-7	3.246487E-2
1.344500E-7	3.236552E-2
1.345000E-7	3.230385E-2
1.345500E-7	3.222505E-2
1.346000E-7	3.212227E-2
1.346500E-7	3.209143E-2
1.347000E-7	3.209829E-2
1.347500E-7	3.206060E-2
1.348000E-7	3.201949E-2
1.348500E-7	3.202634E-2
1.349000E-7	3.201949E-2
1.349500E-7	3.197495E-2
1.350000E-7	3.195097E-2
1.350500E-7	3.195782E-2
1.351000E-7	3.192699E-2
1.351500E-7	3.187217E-2
1.352000E-7	3.183448E-2
1.352500E-7	3.183106E-2
1.353000E-7	3.184819E-2
1.353500E-7	3.187902E-2
1.354000E-7	3.192699E-2
1.354500E-7	3.197495E-2
1.355000E-7	3.200578E-2
1.355500E-7	3.203662E-2
1.356000E-7	3.208116E-2
1.356500E-7	3.211884E-2
1.357000E-7	3.210857E-2
1.357500E-7	3.207430E-2
1.358000E-7	3.202977E-2
1.358500E-7	3.195439E-2
1.359000E-7	3.184476E-2
1.359500E-7	3.173170E-2
1.360000E-7	3.161522E-2
1.360500E-7	3.147818E-2
1.361000E-7	3.136169E-2
1.361500E-7	3.127262E-2
1.362000E-7	3.120067E-2
1.362500E-7	3.117669E-2
1.363000E-7	3.118697E-2
1.363500E-7	3.122123E-2
1.364000E-7	3.125549E-2
1.364500E-7	3.128290E-2
1.365000E-7	3.134114E-2
1.365500E-7	3.141994E-2
1.366000E-7	3.149188E-2
1.366500E-7	3.152614E-2
1.367000E-7	3.152957E-2
1.367500E-7	3.156383E-2
1.368000E-7	3.163920E-2
1.368500E-7	3.168374E-2
1.369000E-7	3.169059E-2
1.369500E-7	3.171115E-2
1.370000E-7	3.175569E-2
1.370500E-7	3.178995E-2
1.371000E-7	3.183448E-2
1.371500E-7	3.188587E-2
1.372000E-7	3.192013E-2
1.372500E-7	3.192699E-2
1.373000E-7	3.191328E-2
1.373500E-7	3.188587E-2
1.374000E-7	3.186189E-2
1.374500E-7	3.183448E-2
1.375000E-7	3.180365E-2
1.375500E-7	3.181735E-2
1.376000E-7	3.186189E-2
1.376500E-7	3.188587E-2
1.377000E-7	3.191328E-2
1.377500E-7	3.198180E-2
1.378000E-7	3.203319E-2
1.378500E-7	3.207430E-2
1.379000E-7	3.213597E-2
1.379500E-7	3.214283E-2
1.380000E-7	3.207088E-2
1.380500E-7	3.198523E-2
1.381000E-7	3.190643E-2
1.381500E-7	3.179337E-2
1.382000E-7	3.162892E-2
1.382500E-7	3.146790E-2
1.383000E-7	3.137197E-2
1.383500E-7	3.132401E-2
1.384000E-7	3.127947E-2
1.384500E-7	3.126919E-2
1.385000E-7	3.132743E-2
1.385500E-7	3.144735E-2
1.386000E-7	3.158096E-2
1.386500E-7	3.171800E-2
1.387000E-7	3.183791E-2
1.387500E-7	3.192013E-2
1.388000E-7	3.195782E-2
1.388500E-7	3.197152E-2
1.389000E-7	3.193384E-2
1.389500E-7	3.184819E-2
1.390000E-7	3.171800E-2
1.390500E-7	3.155013E-2
1.391000E-7	3.138225E-2
1.391500E-7	3.119382E-2
1.392000E-7	3.101224E-2
1.392500E-7	3.089233E-2
1.393000E-7	3.080326E-2
1.393500E-7	3.071760E-2
1.394000E-7	3.068677E-2
1.394500E-7	3.071418E-2
1.395000E-7	3.077242E-2
1.395500E-7	3.085465E-2
1.396000E-7	3.093687E-2
1.396500E-7	3.101909E-2
1.397000E-7	3.109789E-2
1.397500E-7	3.113900E-2
1.398000E-7	3.115613E-2
1.398500E-7	3.120752E-2
1.399000E-7	3.123836E-2
1.399500E-7	3.122808E-2
1.400000E-7	3.119725E-2
1.400500E-7	3.115613E-2
1.401000E-7	3.111502E-2
1.401500E-7	3.111502E-2
1.402000E-7	3.112873E-2
1.402500E-7	3.110817E-2
1.403000E-7	3.109789E-2
1.403500E-7	3.113215E-2
1.404000E-7	3.118697E-2
1.404500E-7	3.124178E-2
1.405000E-7	3.129317E-2
1.405500E-7	3.133086E-2
1.406000E-7	3.136855E-2
1.406500E-7	3.138568E-2
1.407000E-7	3.136855E-2
1.407500E-7	3.133429E-2
1.408000E-7	3.130345E-2
1.408500E-7	3.124178E-2
1.409000E-7	3.117669E-2
1.409500E-7	3.113900E-2
1.410000E-7	3.110474E-2
1.410500E-7	3.107391E-2
1.411000E-7	3.108076E-2
1.411500E-7	3.110474E-2
1.412000E-7	3.113215E-2
1.412500E-7	3.117326E-2
1.413000E-7	3.123836E-2
1.413500E-7	3.132058E-2
1.414000E-7	3.138910E-2
1.414500E-7	3.144735E-2
1.415000E-7	3.151587E-2
1.415500E-7	3.160152E-2
1.416000E-7	3.166661E-2
1.416500E-7	3.169059E-2
1.417000E-7	3.171115E-2
1.417500E-7	3.169402E-2
1.418000E-7	3.158781E-2
1.418500E-7	3.148161E-2
1.419000E-7	3.140966E-2
1.419500E-7	3.128632E-2
1.420000E-7	3.112530E-2
1.420500E-7	3.099511E-2
1.421000E-7	3.089918E-2
1.421500E-7	3.082381E-2
1.422000E-7	3.080668E-2
1.422500E-7	3.084094E-2
1.423000E-7	3.089576E-2
1.423500E-7	3.096770E-2
1.424000E-7	3.103965E-2
1.424500E-7	3.109104E-2
1.425000E-7	3.113900E-2
1.425500E-7	3.115956E-2
1.426000E-7	3.111160E-2
1.426500E-7	3.100882E-2
1.427000E-7	3.087520E-2
1.427500E-7	3.070733E-2
1.428000E-7	3.053260E-2
1.428500E-7	3.035102E-2
1.429000E-7	3.018657E-2
1.429500E-7	3.009065E-2
1.430000E-7	3.006666E-2
1.430500E-7	3.008037E-2
1.431000E-7	3.015917E-2
1.431500E-7	3.026880E-2
1.432000E-7	3.036130E-2
1.432500E-7	3.046408E-2
1.433000E-7	3.061482E-2
1.433500E-7	3.073474E-2
1.434000E-7	3.076214E-2
1.434500E-7	3.077585E-2
1.435000E-7	3.079298E-2
1.435500E-7	3.074159E-2
1.436000E-7	3.066621E-2
1.436500E-7	3.060455E-2
1.437000E-7	3.053260E-2
1.437500E-7	3.048121E-2
1.438000E-7	3.045038E-2
1.438500E-7	3.040584E-2
1.439000E-7	3.039556E-2
1.439500E-7	3.045380E-2
1.440000E-7	3.049491E-2
1.440500E-7	3.049149E-2
1.441000E-7	3.048806E-2
1.441500E-7	3.049491E-2
1.442000E-7	3.048464E-2
1.442500E-7	3.047778E-2
1.443000E-7	3.045723E-2
1.443500E-7	3.040926E-2
1.444000E-7	3.035445E-2
1.444500E-7	3.029963E-2
1.445000E-7	3.024139E-2
1.445500E-7	3.019000E-2
1.446000E-7	3.014889E-2
1.446500E-7	3.013518E-2
1.447000E-7	3.013176E-2
1.447500E-7	3.011120E-2
1.448000E-7	3.008037E-2
1.448500E-7	3.007352E-2
1.449000E-7	3.009407E-2
1.449500E-7	3.011120E-2
1.450000E-7	3.012833E-2
1.450500E-7	3.014546E-2
1.451000E-7	3.017287E-2
1.451500E-7	3.019000E-2
1.452000E-7	3.017972E-2
1.452500E-7	3.019343E-2
1.453000E-7	3.028935E-2
1.453500E-7	3.038871E-2
1.454000E-7	3.042982E-2
1.454500E-7	3.045380E-2
1.455000E-7	3.051547E-2
1.455500E-7	3.058056E-2
1.456000E-7	3.060455E-2
1.456500E-7	3.057714E-2
1.457000E-7	3.053603E-2
1.457500E-7	3.048121E-2
1.458000E-7	3.037500E-2
1.458500E-7	3.022083E-2
1.459000E-7	3.007694E-2
1.459500E-7	2.995703E-2
1.460000E-7	2.982684E-2
1.460500E-7	2.968638E-2
1.461000E-7	2.956304E-2
1.461500E-7	2.946711E-2
1.462000E-7	2.940887E-2
1.462500E-7	2.937804E-2
1.463000E-7	2.939174E-2
1.463500E-7	2.946026E-2
1.464000E-7	2.958017E-2
1.464500E-7	2.974119E-2
1.465000E-7	2.990221E-2
1.465500E-7	3.004611E-2
1.466000E-7	3.019685E-2
1.466500E-7	3.034760E-2
1.467000E-7	3.047778E-2
1.467500E-7	3.055658E-2
1.468000E-7	3.058742E-2
1.468500E-7	3.058056E-2
1.469000E-7	3.053260E-2
1.469500E-7	3.043667E-2
1.470000E-7	3.028935E-2
1.470500E-7	3.014204E-2
1.471000E-7	3.000157E-2
1.471500E-7	2.985082E-2
1.472000E-7	2.971378E-2
1.472500E-7	2.960758E-2
1.473000E-7	2.952535E-2
1.473500E-7	2.950137E-2
1.474000E-7	2.951850E-2
1.474500E-7	2.953906E-2
1.475000E-7	2.961100E-2
1.475500E-7	2.973777E-2
1.476000E-7	2.987138E-2
1.476500E-7	2.998444E-2
1.477000E-7	3.010435E-2
1.477500E-7	3.025167E-2
1.478000E-7	3.039556E-2
1.478500E-7	3.048464E-2
1.479000E-7	3.051890E-2
1.479500E-7	3.054630E-2
1.480000E-7	3.053603E-2
1.480500E-7	3.048806E-2
1.481000E-7	3.043667E-2
1.481500E-7	3.037500E-2
1.482000E-7	3.025509E-2
1.482500E-7	3.010778E-2
1.483000E-7	3.002555E-2
1.483500E-7	2.999129E-2
1.484000E-7	2.996388E-2
1.484500E-7	2.990907E-2
1.485000E-7	2.988166E-2
1.485500E-7	2.991592E-2
1.486000E-7	2.996388E-2
1.486500E-7	2.997416E-2
1.487000E-7	3.000157E-2
1.487500E-7	3.003926E-2
1.488000E-7	3.004268E-2
1.488500E-7	3.001870E-2
1.489000E-7	3.000499E-2
1.489500E-7	2.993990E-2
1.490000E-7	2.984740E-2
1.490500E-7	2.978230E-2
1.491000E-7	2.971036E-2
1.491500E-7	2.959730E-2
1.492000E-7	2.951508E-2
1.492500E-7	2.946711E-2
1.493000E-7	2.940544E-2
1.493500E-7	2.937804E-2
1.494000E-7	2.940887E-2
1.494500E-7	2.943970E-2
1.495000E-7	2.946711E-2
1.495500E-7	2.952535E-2
1.496000E-7	2.956647E-2
1.496500E-7	2.961100E-2
1.497000E-7	2.966925E-2
1.497500E-7	2.969323E-2
1.498000E-7	2.966239E-2
1.498500E-7	2.965212E-2
1.499000E-7	2.967952E-2
1.499500E-7	2.965897E-2
1.500000E-7	2.960073E-2
1.500500E-7	2.958702E-2
1.501000E-7	2.959387E-2
1.501500E-7	2.958702E-2
1.502000E-7	2.957674E-2
1.502500E-7	2.959387E-2
1.503000E-7	2.964184E-2
1.503500E-7	2.969323E-2
1.504000E-7	2.972064E-2
1.504500E-7	2.974119E-2
1.505000E-7	2.975832E-2
1.505500E-7	2.974462E-2
1.506000E-7	2.972406E-2
1.506500E-7	2.973434E-2
1.507000E-7	2.973091E-2
1.507500E-7	2.971036E-2
1.508000E-7	2.971721E-2
1.508500E-7	2.973091E-2
1.509000E-7	2.970693E-2
1.509500E-7	2.970693E-2
1.510000E-7	2.973091E-2
1.510500E-7	2.973091E-2
1.511000E-7	2.970693E-2
1.511500E-7	2.969665E-2
1.512000E-7	2.967610E-2
1.512500E-7	2.962813E-2
1.513000E-7	2.956304E-2
1.513500E-7	2.947396E-2
1.514000E-7	2.937461E-2
1.514500E-7	2.927868E-2
1.515000E-7	2.918960E-2
1.515500E-7	2.910395E-2
1.516000E-7	2.903201E-2
1.516500E-7	2.896691E-2
1.517000E-7	2.893951E-2
1.517500E-7	2.894293E-2
1.518000E-7	2.894978E-2
1.518500E-7	2.895664E-2
1.519000E-7	2.899775E-2
1.519500E-7	2.905599E-2
1.520000E-7	2.907655E-2
1.520500E-7	2.908682E-2
1.521000E-7	2.911766E-2
1.521500E-7	2.911766E-2
1.522000E-7	2.907997E-2
1.522500E-7	2.905942E-2
1.523000E-7	2.906969E-2
1.523500E-7	2.906284E-2
1.524000E-7	2.903543E-2
1.524500E-7	2.903201E-2
1.525000E-7	2.905256E-2
1.525500E-7	2.906284E-2
1.526000E-7	2.907997E-2
1.526500E-7	2.911766E-2
1.527000E-7	2.916905E-2
1.527500E-7	2.920673E-2
1.528000E-7	2.921359E-2
1.528500E-7	2.919303E-2
1.529000E-7	2.916562E-2
1.529500E-7	2.912794E-2
1.530000E-7	2.906284E-2
1.530500E-7	2.897034E-2
1.531000E-7	2.887441E-2
1.531500E-7	2.878191E-2
1.532000E-7	2.867913E-2
1.532500E-7	2.856264E-2
1.533000E-7	2.845986E-2
1.533500E-7	2.838449E-2
1.534000E-7	2.829884E-2
1.534500E-7	2.823375E-2
1.535000E-7	2.823032E-2
1.535500E-7	2.821662E-2
1.536000E-7	2.818578E-2
1.536500E-7	2.820634E-2
1.537000E-7	2.825430E-2
1.537500E-7	2.830227E-2
1.538000E-7	2.836394E-2
1.538500E-7	2.841533E-2
1.539000E-7	2.847357E-2
1.539500E-7	2.857977E-2
1.540000E-7	2.871339E-2
1.540500E-7	2.881960E-2
1.541000E-7	2.892580E-2
1.541500E-7	2.907997E-2
1.542000E-7	2.923072E-2
1.542500E-7	2.932664E-2
1.543000E-7	2.937461E-2
1.543500E-7	2.941572E-2
1.544000E-7	2.945341E-2
1.544500E-7	2.946369E-2
1.545000E-7	2.942257E-2
1.545500E-7	2.936776E-2
1.546000E-7	2.929581E-2
1.546500E-7	2.919646E-2
1.547000E-7	2.909368E-2
1.547500E-7	2.898747E-2
1.548000E-7	2.886756E-2
1.548500E-7	2.874080E-2
1.549000E-7	2.862089E-2
1.549500E-7	2.851811E-2
1.550000E-7	2.844959E-2
1.550500E-7	2.835366E-2
1.551000E-7	2.823717E-2
1.551500E-7	2.814810E-2
1.552000E-7	2.809671E-2
1.552500E-7	2.803504E-2
1.553000E-7	2.797680E-2
1.553500E-7	2.794939E-2
1.554000E-7	2.793226E-2
1.554500E-7	2.791513E-2
1.555000E-7	2.792198E-2
1.555500E-7	2.795624E-2
1.556000E-7	2.798708E-2
1.556500E-7	2.800078E-2
1.557000E-7	2.802476E-2
1.557500E-7	2.804874E-2
1.558000E-7	2.804532E-2
1.558500E-7	2.804189E-2
1.559000E-7	2.805217E-2
1.559500E-7	2.803847E-2
1.560000E-7	2.800763E-2
1.560500E-7	2.799735E-2
1.561000E-7	2.800763E-2
1.561500E-7	2.801448E-2
1.562000E-7	2.803847E-2
1.562500E-7	2.808986E-2
1.563000E-7	2.813782E-2
1.563500E-7	2.817208E-2
1.564000E-7	2.822004E-2
1.564500E-7	2.828171E-2
1.565000E-7	2.835023E-2
1.565500E-7	2.845301E-2
1.566000E-7	2.857977E-2
1.566500E-7	2.867228E-2
1.567000E-7	2.874765E-2
1.567500E-7	2.885043E-2
1.568000E-7	2.892923E-2
1.568500E-7	2.894978E-2
1.569000E-7	2.896691E-2
1.569500E-7	2.898404E-2
1.570000E-7	2.894293E-2
1.570500E-7	2.888812E-2
1.571000E-7	2.882302E-2
1.571500E-7	2.869969E-2
1.572000E-7	2.852838E-2
1.572500E-7	2.838107E-2
1.573000E-7	2.822004E-2
1.573500E-7	2.806930E-2
1.574000E-7	2.798022E-2
1.574500E-7	2.792198E-2
1.575000E-7	2.789457E-2
1.575500E-7	2.792198E-2
1.576000E-7	2.795967E-2
1.576500E-7	2.802819E-2
1.577000E-7	2.814125E-2
1.577500E-7	2.822004E-2
1.578000E-7	2.827829E-2
1.578500E-7	2.837764E-2
1.579000E-7	2.846329E-2
1.579500E-7	2.844959E-2
1.580000E-7	2.838792E-2
1.580500E-7	2.832282E-2
1.581000E-7	2.824745E-2
1.581500E-7	2.814810E-2
1.582000E-7	2.804189E-2
1.582500E-7	2.793911E-2
1.583000E-7	2.786716E-2
1.583500E-7	2.782263E-2
1.584000E-7	2.777809E-2
1.584500E-7	2.778837E-2
1.585000E-7	2.784318E-2
1.585500E-7	2.788429E-2
1.586000E-7	2.792198E-2
1.586500E-7	2.798365E-2
1.587000E-7	2.801791E-2
1.587500E-7	2.800078E-2
1.588000E-7	2.796309E-2
1.588500E-7	2.792198E-2
1.589000E-7	2.783976E-2
1.589500E-7	2.775411E-2
1.590000E-7	2.770272E-2
1.590500E-7	2.765475E-2
1.591000E-7	2.759994E-2
1.591500E-7	2.756568E-2
1.592000E-7	2.754855E-2
1.592500E-7	2.756568E-2
1.593000E-7	2.763077E-2
1.593500E-7	2.771642E-2
1.594000E-7	2.779864E-2
1.594500E-7	2.788429E-2
1.595000E-7	2.799393E-2
1.595500E-7	2.812412E-2
1.596000E-7	2.825088E-2
1.596500E-7	2.836394E-2
1.597000E-7	2.843246E-2
1.597500E-7	2.845986E-2
1.598000E-7	2.846672E-2
1.598500E-7	2.845986E-2
1.599000E-7	2.842218E-2
1.599500E-7	2.835708E-2
1.600000E-7	2.827829E-2
1.600500E-7	2.819949E-2
1.601000E-7	2.814125E-2
1.601500E-7	2.811384E-2
1.602000E-7	2.811041E-2
1.602500E-7	2.812412E-2
1.603000E-7	2.815838E-2
1.603500E-7	2.822347E-2
1.604000E-7	2.831597E-2
1.604500E-7	2.839820E-2
1.605000E-7	2.845301E-2
1.605500E-7	2.851468E-2
1.606000E-7	2.853524E-2
1.606500E-7	2.850440E-2
1.607000E-7	2.844273E-2
1.607500E-7	2.836051E-2
1.608000E-7	2.824060E-2
1.608500E-7	2.811726E-2
1.609000E-7	2.801106E-2
1.609500E-7	2.790142E-2
1.610000E-7	2.780207E-2
1.610500E-7	2.770614E-2
1.611000E-7	2.764790E-2
1.611500E-7	2.764105E-2
1.612000E-7	2.763077E-2
1.612500E-7	2.760679E-2
1.613000E-7	2.764447E-2
1.613500E-7	2.773012E-2
1.614000E-7	2.779522E-2
1.614500E-7	2.786031E-2
1.615000E-7	2.799050E-2
1.615500E-7	2.813097E-2
1.616000E-7	2.821662E-2
1.616500E-7	2.827829E-2
1.617000E-7	2.834681E-2
1.617500E-7	2.839477E-2
1.618000E-7	2.838107E-2
1.618500E-7	2.834338E-2
1.619000E-7	2.829199E-2
1.619500E-7	2.818578E-2
1.620000E-7	2.803161E-2
1.620500E-7	2.787059E-2
1.621000E-7	2.771299E-2
1.621500E-7	2.756225E-2
1.622000E-7	2.743206E-2
1.622500E-7	2.733271E-2
1.623000E-7	2.727789E-2
1.623500E-7	2.725048E-2
1.624000E-7	2.721965E-2
1.624500E-7	2.723678E-2
1.625000E-7	2.731558E-2
1.625500E-7	2.734984E-2
1.626000E-7	2.736354E-2
1.626500E-7	2.741493E-2
1.627000E-7	2.746290E-2
1.627500E-7	2.747317E-2
1.628000E-7	2.747317E-2
1.628500E-7	2.745604E-2
1.629000E-7	2.740465E-2
1.629500E-7	2.736354E-2
1.630000E-7	2.732243E-2
1.630500E-7	2.725048E-2
1.631000E-7	2.717854E-2
1.631500E-7	2.714428E-2
1.632000E-7	2.709974E-2
1.632500E-7	2.702779E-2
1.633000E-7	2.698668E-2
1.633500E-7	2.697983E-2
1.634000E-7	2.696612E-2
1.634500E-7	2.696955E-2
1.635000E-7	2.703122E-2
1.635500E-7	2.713057E-2
1.636000E-7	2.721965E-2
1.636500E-7	2.731900E-2
1.637000E-7	2.744234E-2
1.637500E-7	2.756225E-2
1.638000E-7	2.766160E-2
1.638500E-7	2.774725E-2
1.639000E-7	2.781920E-2
1.639500E-7	2.784318E-2
1.640000E-7	2.780892E-2
1.640500E-7	2.776096E-2
1.641000E-7	2.772670E-2
1.641500E-7	2.767873E-2
1.642000E-7	2.756225E-2
1.642500E-7	2.742864E-2
1.643000E-7	2.731558E-2
1.643500E-7	2.723678E-2
1.644000E-7	2.714428E-2
1.644500E-7	2.702437E-2
1.645000E-7	2.691473E-2
1.645500E-7	2.688390E-2
1.646000E-7	2.685307E-2
1.646500E-7	2.677084E-2
1.647000E-7	2.672288E-2
1.647500E-7	2.675714E-2
1.648000E-7	2.680168E-2
1.648500E-7	2.683251E-2
1.649000E-7	2.691473E-2
1.649500E-7	2.701409E-2
1.650000E-7	2.708261E-2
1.650500E-7	2.718881E-2
1.651000E-7	2.732243E-2
1.651500E-7	2.739438E-2
1.652000E-7	2.744919E-2
1.652500E-7	2.752456E-2
1.653000E-7	2.753484E-2
1.653500E-7	2.748688E-2
1.654000E-7	2.744234E-2
1.654500E-7	2.737725E-2
1.655000E-7	2.727789E-2
1.655500E-7	2.721280E-2
1.656000E-7	2.715113E-2
1.656500E-7	2.706205E-2
1.657000E-7	2.699696E-2
1.657500E-7	2.698325E-2
1.658000E-7	2.699353E-2
1.658500E-7	2.702437E-2
1.659000E-7	2.708603E-2
1.659500E-7	2.715455E-2
1.660000E-7	2.721965E-2
1.660500E-7	2.727447E-2
1.661000E-7	2.731900E-2
1.661500E-7	2.734641E-2
1.662000E-7	2.736354E-2
1.662500E-7	2.736012E-2
1.663000E-7	2.734299E-2
1.663500E-7	2.728817E-2
1.664000E-7	2.719909E-2
1.664500E-7	2.711344E-2
1.665000E-7	2.704835E-2
1.665500E-7	2.698668E-2
1.666000E-7	2.694899E-2
1.666500E-7	2.693872E-2
1.667000E-7	2.695242E-2
1.667500E-7	2.698325E-2
1.668000E-7	2.700381E-2
1.668500E-7	2.700381E-2
1.669000E-7	2.702094E-2
1.669500E-7	2.704835E-2
1.670000E-7	2.702779E-2
1.670500E-7	2.697983E-2
1.671000E-7	2.696270E-2
1.671500E-7	2.691816E-2
1.672000E-7	2.682908E-2
1.672500E-7	2.678112E-2
1.673000E-7	2.675371E-2
1.673500E-7	2.670575E-2
1.674000E-7	2.671260E-2
1.674500E-7	2.675371E-2
1.675000E-7	2.674686E-2
1.675500E-7	2.675714E-2
1.676000E-7	2.682223E-2
1.676500E-7	2.685992E-2
1.677000E-7	2.690788E-2
1.677500E-7	2.699011E-2
1.678000E-7	2.701409E-2
1.678500E-7	2.700724E-2
1.679000E-7	2.706548E-2
1.679500E-7	2.712029E-2
1.680000E-7	2.709631E-2
1.680500E-7	2.709974E-2
1.681000E-7	2.713400E-2
1.681500E-7	2.712715E-2
1.682000E-7	2.711687E-2
1.682500E-7	2.711687E-2
1.683000E-7	2.708603E-2
1.683500E-7	2.703807E-2
1.684000E-7	2.700381E-2
1.684500E-7	2.694557E-2
1.685000E-7	2.688733E-2
1.685500E-7	2.684964E-2
1.686000E-7	2.680853E-2
1.686500E-7	2.676399E-2
1.687000E-7	2.673658E-2
1.687500E-7	2.670232E-2
1.688000E-7	2.666464E-2
1.688500E-7	2.664408E-2
1.689000E-7	2.664065E-2
1.689500E-7	2.663380E-2
1.690000E-7	2.660297E-2
1.690500E-7	2.656185E-2
1.691000E-7	2.654815E-2
1.691500E-7	2.653102E-2
1.692000E-7	2.647963E-2
1.692500E-7	2.643167E-2
1.693000E-7	2.641796E-2
1.693500E-7	2.640426E-2
1.694000E-7	2.638028E-2
1.694500E-7	2.635972E-2
1.695000E-7	2.635287E-2
1.695500E-7	2.634944E-2
1.696000E-7	2.631861E-2
1.696500E-7	2.625351E-2
1.697000E-7	2.619870E-2
1.697500E-7	2.616101E-2
1.698000E-7	2.609592E-2
1.698500E-7	2.600684E-2
1.699000E-7	2.592804E-2
1.699500E-7	2.587323E-2
1.700000E-7	2.585610E-2
1.700500E-7	2.585267E-2
1.701000E-7	2.586980E-2
1.701500E-7	2.595888E-2
1.702000E-7	2.604453E-2
1.702500E-7	2.611990E-2
1.703000E-7	2.626722E-2
1.703500E-7	2.646593E-2
1.704000E-7	2.659954E-2
1.704500E-7	2.667834E-2
1.705000E-7	2.675714E-2
1.705500E-7	2.680853E-2
1.706000E-7	2.682223E-2
1.706500E-7	2.679140E-2
1.707000E-7	2.670232E-2
1.707500E-7	2.658584E-2
1.708000E-7	2.646935E-2
1.708500E-7	2.633916E-2
1.709000E-7	2.621240E-2
1.709500E-7	2.609592E-2
1.710000E-7	2.601369E-2
1.710500E-7	2.597258E-2
1.711000E-7	2.595203E-2
1.711500E-7	2.597601E-2
1.712000E-7	2.604453E-2
1.712500E-7	2.609934E-2
1.713000E-7	2.614046E-2
1.713500E-7	2.623296E-2
1.714000E-7	2.633231E-2
1.714500E-7	2.636657E-2
1.715000E-7	2.637342E-2
1.715500E-7	2.637685E-2
1.716000E-7	2.632889E-2
1.716500E-7	2.623638E-2
1.717000E-7	2.616101E-2
1.717500E-7	2.609592E-2
1.718000E-7	2.602397E-2
1.718500E-7	2.595888E-2
1.719000E-7	2.590406E-2
1.719500E-7	2.585952E-2
1.720000E-7	2.584582E-2
1.720500E-7	2.585267E-2
1.721000E-7	2.589036E-2
1.721500E-7	2.597601E-2
1.722000E-7	2.607194E-2
1.722500E-7	2.612675E-2
1.723000E-7	2.616786E-2
1.723500E-7	2.622268E-2
1.724000E-7	2.626037E-2
1.724500E-7	2.623296E-2
1.725000E-7	2.618157E-2
1.725500E-7	2.614731E-2
1.726000E-7	2.611647E-2
1.726500E-7	2.605823E-2
1.727000E-7	2.599656E-2
1.727500E-7	2.595203E-2
1.728000E-7	2.591091E-2
1.728500E-7	2.588693E-2
1.729000E-7	2.588693E-2
1.729500E-7	2.590064E-2
1.730000E-7	2.589721E-2
1.730500E-7	2.588350E-2
1.731000E-7	2.586637E-2
1.731500E-7	2.585952E-2
1.732000E-7	2.585952E-2
1.732500E-7	2.587323E-2
1.733000E-7	2.588008E-2
1.733500E-7	2.588693E-2
1.734000E-7	2.591434E-2
1.734500E-7	2.592462E-2
1.735000E-7	2.591777E-2
1.735500E-7	2.593832E-2
1.736000E-7	2.594175E-2
1.736500E-7	2.591091E-2
1.737000E-7	2.587665E-2
1.737500E-7	2.585610E-2
1.738000E-7	2.581498E-2
1.738500E-7	2.573276E-2
1.739000E-7	2.562313E-2
1.739500E-7	2.551007E-2
1.740000E-7	2.541072E-2
1.740500E-7	2.535247E-2
1.741000E-7	2.531136E-2
1.741500E-7	2.525655E-2
1.742000E-7	2.523256E-2
1.742500E-7	2.528395E-2
1.743000E-7	2.537646E-2
1.743500E-7	2.547924E-2
1.744000E-7	2.558202E-2
1.744500E-7	2.569165E-2
1.745000E-7	2.579443E-2
1.745500E-7	2.588008E-2
1.746000E-7	2.593147E-2
1.746500E-7	2.593832E-2
1.747000E-7	2.591091E-2
1.747500E-7	2.586295E-2
1.748000E-7	2.577730E-2
1.748500E-7	2.566767E-2
1.749000E-7	2.560257E-2
1.749500E-7	2.555803E-2
1.750000E-7	2.549637E-2
1.750500E-7	2.547924E-2
1.751000E-7	2.554433E-2
1.751500E-7	2.563683E-2
1.752000E-7	2.571563E-2
1.752500E-7	2.583554E-2
1.753000E-7	2.599656E-2
1.753500E-7	2.613360E-2
1.754000E-7	2.620212E-2
1.754500E-7	2.619870E-2
1.755000E-7	2.616786E-2
1.755500E-7	2.611305E-2
1.756000E-7	2.598971E-2
1.756500E-7	2.579785E-2
1.757000E-7	2.562313E-2
1.757500E-7	2.550322E-2
1.758000E-7	2.540044E-2
1.758500E-7	2.531821E-2
1.759000E-7	2.527710E-2
1.759500E-7	2.527025E-2
1.760000E-7	2.530451E-2
1.760500E-7	2.539359E-2
1.761000E-7	2.549637E-2
1.761500E-7	2.558202E-2
1.762000E-7	2.564711E-2
1.762500E-7	2.569507E-2
1.763000E-7	2.571563E-2
1.763500E-7	2.570193E-2
1.764000E-7	2.566424E-2
1.764500E-7	2.559915E-2
1.765000E-7	2.553063E-2
1.765500E-7	2.548266E-2
1.766000E-7	2.542785E-2
1.766500E-7	2.533192E-2
1.767000E-7	2.524969E-2
1.767500E-7	2.525312E-2
1.768000E-7	2.525655E-2
1.768500E-7	2.519145E-2
1.769000E-7	2.515034E-2
1.769500E-7	2.517089E-2
1.770000E-7	2.516747E-2
1.770500E-7	2.513663E-2
1.771000E-7	2.513321E-2
1.771500E-7	2.515034E-2
1.772000E-7	2.519145E-2
1.772500E-7	2.527025E-2
1.773000E-7	2.534220E-2
1.773500E-7	2.540044E-2
1.774000E-7	2.549637E-2
1.774500E-7	2.558544E-2
1.775000E-7	2.560942E-2
1.775500E-7	2.564711E-2
1.776000E-7	2.573619E-2
1.776500E-7	2.578072E-2
1.777000E-7	2.574646E-2
1.777500E-7	2.570193E-2
1.778000E-7	2.562655E-2
1.778500E-7	2.553405E-2
1.779000E-7	2.544498E-2
1.779500E-7	2.534562E-2
1.780000E-7	2.519830E-2
1.780500E-7	2.505441E-2
1.781000E-7	2.496533E-2
1.781500E-7	2.488996E-2
1.782000E-7	2.478376E-2
1.782500E-7	2.472894E-2
1.783000E-7	2.475292E-2
1.783500E-7	2.479061E-2
1.784000E-7	2.482829E-2
1.784500E-7	2.489681E-2
1.785000E-7	2.498246E-2
1.785500E-7	2.508867E-2
1.786000E-7	2.516404E-2
1.786500E-7	2.517775E-2
1.787000E-7	2.519488E-2
1.787500E-7	2.522229E-2
1.788000E-7	2.519830E-2
1.788500E-7	2.514349E-2
1.789000E-7	2.509210E-2
1.789500E-7	2.503385E-2
1.790000E-7	2.497219E-2
1.790500E-7	2.493450E-2
1.791000E-7	2.494478E-2
1.791500E-7	2.496533E-2
1.792000E-7	2.502015E-2
1.792500E-7	2.510923E-2
1.793000E-7	2.516747E-2
1.793500E-7	2.517432E-2
1.794000E-7	2.517775E-2
1.794500E-7	2.520858E-2
1.795000E-7	2.518460E-2
1.795500E-7	2.506126E-2
1.796000E-7	2.491052E-2
1.796500E-7	2.481116E-2
1.797000E-7	2.474607E-2
1.797500E-7	2.464672E-2
1.798000E-7	2.454394E-2
1.798500E-7	2.448912E-2
1.799000E-7	2.447541E-2
1.799500E-7	2.450625E-2
1.800000E-7	2.460218E-2
1.800500E-7	2.471181E-2
1.801000E-7	2.478718E-2
1.801500E-7	2.486255E-2
1.802000E-7	2.496533E-2
1.802500E-7	2.505441E-2
1.803000E-7	2.512293E-2
1.803500E-7	2.519145E-2
1.804000E-7	2.521201E-2
1.804500E-7	2.518802E-2
1.805000E-7	2.519830E-2
1.805500E-7	2.524284E-2
1.806000E-7	2.529423E-2
1.806500E-7	2.534220E-2
1.807000E-7	2.540044E-2
1.807500E-7	2.546211E-2
1.808000E-7	2.549637E-2
1.808500E-7	2.547581E-2
1.809000E-7	2.543127E-2
1.809500E-7	2.539359E-2
1.810000E-7	2.533534E-2
1.810500E-7	2.524627E-2
1.811000E-7	2.512636E-2
1.811500E-7	2.498246E-2
1.812000E-7	2.482487E-2
1.812500E-7	2.469125E-2
1.813000E-7	2.458505E-2
1.813500E-7	2.449254E-2
1.814000E-7	2.442745E-2
1.814500E-7	2.440004E-2
1.815000E-7	2.441375E-2
1.815500E-7	2.447884E-2
1.816000E-7	2.457477E-2
1.816500E-7	2.465357E-2
1.817000E-7	2.473922E-2
1.817500E-7	2.483515E-2
1.818000E-7	2.488311E-2
1.818500E-7	2.488996E-2
1.819000E-7	2.489339E-2
1.819500E-7	2.489339E-2
1.820000E-7	2.488654E-2
1.820500E-7	2.482829E-2
1.821000E-7	2.472209E-2
1.821500E-7	2.464672E-2
1.822000E-7	2.461931E-2
1.822500E-7	2.458505E-2
1.823000E-7	2.456107E-2
1.823500E-7	2.458847E-2
1.824000E-7	2.466042E-2
1.824500E-7	2.475292E-2
1.825000E-7	2.482829E-2
1.825500E-7	2.489681E-2
1.826000E-7	2.497219E-2
1.826500E-7	2.504413E-2
1.827000E-7	2.509552E-2
1.827500E-7	2.511265E-2
1.828000E-7	2.510237E-2
1.828500E-7	2.507154E-2
1.829000E-7	2.501672E-2
1.829500E-7	2.495163E-2
1.830000E-7	2.488996E-2
1.830500E-7	2.484542E-2
1.831000E-7	2.479403E-2
1.831500E-7	2.471866E-2
1.832000E-7	2.466042E-2
1.832500E-7	2.462273E-2
1.833000E-7	2.458847E-2
1.833500E-7	2.457477E-2
1.834000E-7	2.455764E-2
1.834500E-7	2.452338E-2
1.835000E-7	2.449940E-2
1.835500E-7	2.451995E-2
1.836000E-7	2.455079E-2
1.836500E-7	2.459190E-2
1.837000E-7	2.464672E-2
1.837500E-7	2.469125E-2
1.838000E-7	2.471181E-2
1.838500E-7	2.472551E-2
1.839000E-7	2.473922E-2
1.839500E-7	2.474950E-2
1.840000E-7	2.472551E-2
1.840500E-7	2.467412E-2
1.841000E-7	2.462273E-2
1.841500E-7	2.455421E-2
1.842000E-7	2.446856E-2
1.842500E-7	2.443773E-2
1.843000E-7	2.444115E-2
1.843500E-7	2.443773E-2
1.844000E-7	2.442060E-2
1.844500E-7	2.442060E-2
1.845000E-7	2.445143E-2
1.845500E-7	2.449254E-2
1.846000E-7	2.452338E-2
1.846500E-7	2.455421E-2
1.847000E-7	2.458505E-2
1.847500E-7	2.458847E-2
1.848000E-7	2.456449E-2
1.848500E-7	2.455079E-2
1.849000E-7	2.453023E-2
1.849500E-7	2.449254E-2
1.850000E-7	2.445828E-2
1.850500E-7	2.444115E-2
1.851000E-7	2.441032E-2
1.851500E-7	2.437949E-2
1.852000E-7	2.437606E-2
1.852500E-7	2.434180E-2
1.853000E-7	2.426985E-2
1.853500E-7	2.424245E-2
1.854000E-7	2.422874E-2
1.854500E-7	2.415337E-2
1.855000E-7	2.407457E-2
1.855500E-7	2.404716E-2
1.856000E-7	2.402318E-2
1.856500E-7	2.395124E-2
1.857000E-7	2.390670E-2
1.857500E-7	2.390327E-2
1.858000E-7	2.389642E-2
1.858500E-7	2.390670E-2
1.859000E-7	2.393753E-2
1.859500E-7	2.394096E-2
1.860000E-7	2.394781E-2
1.860500E-7	2.400263E-2
1.861000E-7	2.403689E-2
1.861500E-7	2.405402E-2
1.862000E-7	2.412939E-2
1.862500E-7	2.422532E-2
1.863000E-7	2.428698E-2
1.863500E-7	2.435893E-2
1.864000E-7	2.443430E-2
1.864500E-7	2.448227E-2
1.865000E-7	2.452681E-2
1.865500E-7	2.455764E-2
1.866000E-7	2.458847E-2
1.866500E-7	2.462959E-2
1.867000E-7	2.463986E-2
1.867500E-7	2.460560E-2
1.868000E-7	2.456107E-2
1.868500E-7	2.452338E-2
1.869000E-7	2.445486E-2
1.869500E-7	2.434523E-2
1.870000E-7	2.423217E-2
1.870500E-7	2.409170E-2
1.871000E-7	2.396494E-2
1.871500E-7	2.387586E-2
1.872000E-7	2.377993E-2
1.872500E-7	2.368058E-2
1.873000E-7	2.360863E-2
1.873500E-7	2.354354E-2
1.874000E-7	2.347159E-2
1.874500E-7	2.339965E-2
1.875000E-7	2.334483E-2
1.875500E-7	2.331057E-2
1.876000E-7	2.326946E-2
1.876500E-7	2.319409E-2
1.877000E-7	2.311186E-2
1.877500E-7	2.303992E-2
1.878000E-7	2.295769E-2
1.878500E-7	2.286519E-2
1.879000E-7	2.280695E-2
1.879500E-7	2.278639E-2
1.880000E-7	2.275898E-2
1.880500E-7	2.274871E-2
1.881000E-7	2.278982E-2
1.881500E-7	2.287204E-2
1.882000E-7	2.296797E-2
1.882500E-7	2.308445E-2
1.883000E-7	2.324205E-2
1.883500E-7	2.340993E-2
1.884000E-7	2.357095E-2
1.884500E-7	2.373882E-2
1.885000E-7	2.389985E-2
1.885500E-7	2.403346E-2
1.886000E-7	2.412939E-2
1.886500E-7	2.418078E-2
1.887000E-7	2.418763E-2
1.887500E-7	2.418420E-2
1.888000E-7	2.412939E-2
1.888500E-7	2.403346E-2
1.889000E-7	2.396837E-2
1.889500E-7	2.389985E-2
1.890000E-7	2.373197E-2
1.890500E-7	2.355724E-2
1.891000E-7	2.345446E-2
1.891500E-7	2.336539E-2
1.892000E-7	2.325576E-2
1.892500E-7	2.315983E-2
1.893000E-7	2.307075E-2
1.893500E-7	2.299195E-2
1.894000E-7	2.294056E-2
1.894500E-7	2.292686E-2
1.895000E-7	2.294399E-2
1.895500E-7	2.299538E-2
1.896000E-7	2.303992E-2
1.896500E-7	2.308445E-2
1.897000E-7	2.316325E-2
1.897500E-7	2.323520E-2
1.898000E-7	2.326603E-2
1.898500E-7	2.331057E-2
1.899000E-7	2.337909E-2
1.899500E-7	2.339965E-2
1.900000E-7	2.339280E-2
1.900500E-7	2.340307E-2
1.901000E-7	2.342020E-2
1.901500E-7	2.342706E-2
1.902000E-7	2.344076E-2
1.902500E-7	2.343391E-2
1.903000E-7	2.342363E-2
1.903500E-7	2.339622E-2
1.904000E-7	2.332428E-2
1.904500E-7	2.325576E-2
1.905000E-7	2.322835E-2
1.905500E-7	2.321122E-2
1.906000E-7	2.318724E-2
1.906500E-7	2.315983E-2
1.907000E-7	2.314955E-2
1.907500E-7	2.318381E-2
1.908000E-7	2.327631E-2
1.908500E-7	2.335854E-2
1.909000E-7	2.343391E-2
1.909500E-7	2.357437E-2
1.910000E-7	2.374225E-2
1.910500E-7	2.389299E-2
1.911000E-7	2.407115E-2
1.911500E-7	2.422532E-2
1.912000E-7	2.428013E-2
1.912500E-7	2.428013E-2
1.913000E-7	2.428356E-2
1.913500E-7	2.421504E-2
1.914000E-7	2.407457E-2
1.914500E-7	2.393753E-2
1.915000E-7	2.379364E-2
1.915500E-7	2.360178E-2
1.916000E-7	2.342363E-2
1.916500E-7	2.329002E-2
1.917000E-7	2.319066E-2
1.917500E-7	2.313927E-2
1.918000E-7	2.310844E-2
1.918500E-7	2.307760E-2
1.919000E-7	2.312214E-2
1.919500E-7	2.323863E-2
1.920000E-7	2.333455E-2
1.920500E-7	2.340307E-2
1.921000E-7	2.348872E-2
1.921500E-7	2.355382E-2
1.922000E-7	2.358465E-2
1.922500E-7	2.357780E-2
1.923000E-7	2.354354E-2
1.923500E-7	2.350243E-2
1.924000E-7	2.342020E-2
1.924500E-7	2.330372E-2
1.925000E-7	2.322492E-2
1.925500E-7	2.316668E-2
1.926000E-7	2.308103E-2
1.926500E-7	2.302279E-2
1.927000E-7	2.301251E-2
1.927500E-7	2.301936E-2
1.928000E-7	2.306047E-2
1.928500E-7	2.315298E-2
1.929000E-7	2.325576E-2
1.929500E-7	2.335168E-2
1.930000E-7	2.346474E-2
1.930500E-7	2.356067E-2
1.931000E-7	2.358808E-2
1.931500E-7	2.358808E-2
1.932000E-7	2.359493E-2
1.932500E-7	2.355039E-2
1.933000E-7	2.344761E-2
1.933500E-7	2.333455E-2
1.934000E-7	2.322492E-2
1.934500E-7	2.308103E-2
1.935000E-7	2.293028E-2
1.935500E-7	2.281037E-2
1.936000E-7	2.267333E-2
1.936500E-7	2.253287E-2
1.937000E-7	2.246435E-2
1.937500E-7	2.245064E-2
1.938000E-7	2.239925E-2
1.938500E-7	2.233758E-2
1.939000E-7	2.233758E-2
1.939500E-7	2.237184E-2
1.940000E-7	2.238555E-2
1.940500E-7	2.243351E-2
1.941000E-7	2.252259E-2
1.941500E-7	2.260824E-2
1.942000E-7	2.265620E-2
1.942500E-7	2.267676E-2
1.943000E-7	2.271445E-2
1.943500E-7	2.278982E-2
1.944000E-7	2.286862E-2
1.944500E-7	2.291315E-2
1.945000E-7	2.295427E-2
1.945500E-7	2.301593E-2
1.946000E-7	2.307075E-2
1.946500E-7	2.309473E-2
1.947000E-7	2.313927E-2
1.947500E-7	2.321807E-2
1.948000E-7	2.328316E-2
1.948500E-7	2.332770E-2
1.949000E-7	2.336881E-2
1.949500E-7	2.342020E-2
1.950000E-7	2.343391E-2
1.950500E-7	2.339280E-2
1.951000E-7	2.334483E-2
1.951500E-7	2.330715E-2
1.952000E-7	2.323177E-2
1.952500E-7	2.312899E-2
1.953000E-7	2.305019E-2
1.953500E-7	2.295769E-2
1.954000E-7	2.282065E-2
1.954500E-7	2.272130E-2
1.955000E-7	2.270759E-2
1.955500E-7	2.269732E-2
1.956000E-7	2.266991E-2
1.956500E-7	2.269732E-2
1.957000E-7	2.275213E-2
1.957500E-7	2.281380E-2
1.958000E-7	2.292001E-2
1.958500E-7	2.302279E-2
1.959000E-7	2.309473E-2
1.959500E-7	2.319066E-2
1.960000E-7	2.324890E-2
1.960500E-7	2.322835E-2
1.961000E-7	2.321807E-2
1.961500E-7	2.318724E-2
1.962000E-7	2.308445E-2
1.962500E-7	2.297825E-2
1.963000E-7	2.290288E-2
1.963500E-7	2.278297E-2
1.964000E-7	2.267676E-2
1.964500E-7	2.266991E-2
1.965000E-7	2.265620E-2
1.965500E-7	2.256028E-2
1.966000E-7	2.250546E-2
1.966500E-7	2.253629E-2
1.967000E-7	2.255685E-2
1.967500E-7	2.255685E-2
1.968000E-7	2.256370E-2
1.968500E-7	2.252602E-2
1.969000E-7	2.248490E-2
1.969500E-7	2.249176E-2
1.970000E-7	2.250546E-2
1.970500E-7	2.251231E-2
1.971000E-7	2.253629E-2
1.971500E-7	2.257055E-2
1.972000E-7	2.261509E-2
1.972500E-7	2.266648E-2
1.973000E-7	2.271445E-2
1.973500E-7	2.276241E-2
1.974000E-7	2.281380E-2
1.974500E-7	2.284463E-2
1.975000E-7	2.282750E-2
1.975500E-7	2.280352E-2
1.976000E-7	2.275556E-2
1.976500E-7	2.268361E-2
1.977000E-7	2.262880E-2
1.977500E-7	2.258768E-2
1.978000E-7	2.252944E-2
1.978500E-7	2.248148E-2
1.979000E-7	2.245750E-2
1.979500E-7	2.241981E-2
1.980000E-7	2.238212E-2
1.980500E-7	2.237527E-2
1.981000E-7	2.237184E-2
1.981500E-7	2.234444E-2
1.982000E-7	2.233073E-2
1.982500E-7	2.233073E-2
1.983000E-7	2.234786E-2
1.983500E-7	2.236499E-2
1.984000E-7	2.239925E-2
1.984500E-7	2.247120E-2
1.985000E-7	2.252944E-2
1.985500E-7	2.257741E-2
1.986000E-7	2.266306E-2
1.986500E-7	2.272472E-2
1.987000E-7	2.274528E-2
1.987500E-7	2.277269E-2
1.988000E-7	2.280352E-2
1.988500E-7	2.279324E-2
1.989000E-7	2.277269E-2
1.989500E-7	2.275213E-2
1.990000E-7	2.268019E-2
1.990500E-7	2.258768E-2
1.991000E-7	2.254315E-2
1.991500E-7	2.250546E-2
1.992000E-7	2.240953E-2
1.992500E-7	2.227934E-2
1.993000E-7	2.215943E-2
1.993500E-7	2.206350E-2
1.994000E-7	2.195730E-2
1.994500E-7	2.184081E-2
1.995000E-7	2.176202E-2
1.995500E-7	2.174488E-2
1.996000E-7	2.175859E-2
1.996500E-7	2.178600E-2
1.997000E-7	2.186137E-2
1.997500E-7	2.200526E-2
1.998000E-7	2.215601E-2
1.998500E-7	2.230332E-2
1.999000E-7	2.250203E-2
1.999500E-7	2.271445E-2
2.000000E-7	2.287547E-2
2.000500E-7	2.298167E-2
